title:01,recorded:13.04.19 08.55.00,sampling:128,subject:02,labels:COUNTER INTERPOLATED AF3 F7 F3 FC5 T7 P7 O1 O2 P8 T8 FC6 F4 F8 AF4 RAW_CQ GYROX GYROY MARKER MARKER_HARDWARE SYNC TIME_STAMP_s TIME_STAMP_ms CQ_AF3 CQ_F7 CQ_F3 CQ_FC5 CQ_T7 CQ_P7 CQ_O1 CQ_O2 CQ_P8 CQ_T8 CQ_FC6 CQ_F4 CQ_F8 CQ_AF4 CQ_CMS CQ_DRL,chan:40,units:emotiv,,,,,,,,,,,,,,,,,,,,,,,,,,,,,,,,,
85,0,4200.692383,4225.307617,4217.615234,4200.692383,4224.281738,4225.307617,4195.05127,4209.922852,4202.230469,4198.641113,4202.230469,4188.897461,4213.512695,4202.743652,472,2045,2049,0,0,0,1189,296,0,0,0,0,0,0,0,0,0,0,0,0,0,0,0,0
86,0,4204.230469,4227.820313,4222.179199,4203.717773,4226.281738,4226.794922,4198.07666,4212.436035,4204.230469,4196.538574,4204.230469,4190.897461,4220.641113,4203.205078,298,2046,2046,0,0,0,1189,304,0,0,0,0,0,0,0,0,0,0,0,0,0,0,0,0
87,0,4160.205078,4182.256348,4179.179199,4168.410156,4182.769043,4184.820313,4158.153809,4169.436035,4156.615234,4153.538574,4156.102539,4141.743652,4176.615234,4157.12793,560,2045,2046,0,0,0,1189,312,0,0,0,0,0,0,0,0,0,0,0,0,0,0,0,0
88,0,4215.871582,4232.281738,4228.179199,4219.461426,4231.769043,4232.794922,4206.12793,4220.487305,4211.769043,4210.230469,4208.692383,4201,4223.563965,4212.281738,933,2045,2047,0,0,0,1189,321,0,0,0,0,0,0,0,0,0,0,0,0,0,0,0,0
89,0,4166.358887,4184.307617,4180.205078,4168.410156,4185.333008,4183.281738,4153.025391,4174.05127,4168.410156,4163.794922,4164.820313,4146.358887,4170.974121,4162.769043,472,2047,2046,0,0,0,1189,329,0,0,0,0,0,0,0,0,0,0,0,0,0,0,0,0
90,0,4090.256348,4111.281738,4108.717773,4100,4112.820313,4112.307617,4078.974121,4102.05127,4094.358887,4091.794922,4096.922852,4075.384277,4103.589844,4094.358887,298,2047,2047,0,0,0,1189,337,0,0,0,0,0,0,0,0,0,0,0,0,0,0,0,0
91,0,4177,4206.743652,4195.461426,4200.07666,4205.717773,4208.794922,4180.07666,4192.897461,4179.05127,4178.538574,4181.102539,4169.307617,4198.025391,4183.666504,560,2048,2048,0,0,0,1189,346,0,0,0,0,0,0,0,0,0,0,0,0,0,0,0,0
92,0,4079.436035,4114.307617,4102,4106.615234,4116.358887,4114.820313,4087.641113,4091.743652,4075.333008,4074.307617,4075.333008,4066.102539,4096.358887,4076.871582,933,2048,2048,0,0,0,1189,354,0,0,0,0,0,0,0,0,0,0,0,0,0,0,0,0
93,0,4189.153809,4213.256348,4212.743652,4207.615234,4217.358887,4214.794922,4185.563965,4193.256348,4181.461426,4178.384277,4180.436035,4171.717773,4202.487305,4183.512695,472,2048,2047,0,0,0,1189,362,0,0,0,0,0,0,0,0,0,0,0,0,0,0,0,0
94,0,4122.102539,4144.666504,4144.666504,4143.12793,4138,4149.794922,4127.230469,4130.820313,4116.974121,4113.384277,4113.897461,4098,4137.487305,4117.487305,298,2047,2047,0,0,0,1189,371,0,0,0,0,0,0,0,0,0,0,0,0,0,0,0,0
95,0,4249.205078,4274.846191,4269.205078,4269.717773,4258.94873,4277.410156,4261,4259.461426,4248.179199,4246.641113,4249.205078,4231.769043,4263.563965,4248.179199,560,2045,2047,0,0,0,1189,379,0,0,0,0,0,0,0,0,0,0,0,0,0,0,0,0
96,0,4079.281738,4106.461426,4099.794922,4096.205078,4097.230469,4103.897461,4089.538574,4090.05127,4080.820313,4080.820313,4082.358887,4066.974121,4091.07666,4079.281738,933,2044,2045,0,0,0,1189,387,0,0,0,0,0,0,0,0,0,0,0,0,0,0,0,0
97,0,4146.256348,4173.94873,4166.256348,4168.820313,4170.358887,4171.897461,4157.025391,4157.538574,4147.281738,4143.692383,4145.743652,4127.794922,4156,4142.153809,472,2043,2047,0,0,0,1189,395,0,0,0,0,0,0,0,0,0,0,0,0,0,0,0,0
98,0,4139.333008,4164.461426,4155.230469,4161.384277,4156.256348,4163.436035,4144.461426,4147.538574,4141.384277,4137.281738,4142.922852,4124.461426,4151.641113,4138.307617,298,2041,2047,0,0,0,1189,402,0,0,0,0,0,0,0,0,0,0,0,0,0,0,0,0
99,0,4196.07666,4225.307617,4215.563965,4214.025391,4218.641113,4225.820313,4207.871582,4205.307617,4192.487305,4191.974121,4193,4176.589844,4211.974121,4193,560,2042,2047,0,0,0,1189,410,0,0,0,0,0,0,0,0,0,0,0,0,0,0,0,0
100,0,4101.025391,4128.717773,4121.538574,4113.846191,4129.230469,4130.769043,4112.820313,4107.692383,4087.692383,4087.692383,4087.692383,4080,4113.333008,4091.281738,933,2040,2046,0,0,0,1189,417,0,0,0,0,0,0,0,0,0,0,0,0,0,0,0,0
101,0,4075.692383,4099.281738,4089.538574,4091.07666,4097.743652,4100.307617,4080.307617,4082.358887,4066.974121,4064.922852,4067.487305,4057.743652,4087.487305,4068,472,2041,2044,0,0,0,1189,424,0,0,0,0,0,0,0,0,0,0,0,0,0,0,0,0
102,0,4083.12793,4108.256348,4098,4107.230469,4102.615234,4107.743652,4091.846191,4089.794922,4078,4075.436035,4076.974121,4059.538574,4095.436035,4075.94873,298,2041,2043,0,0,0,1189,432,0,0,0,0,0,0,0,0,0,0,0,0,0,0,0,0
103,0,4194.07666,4217.153809,4213.563965,4215.615234,4210.487305,4216.12793,4202.794922,4197.153809,4183.307617,4179.717773,4182.794922,4173.05127,4205.871582,4182.794922,560,2041,2042,0,0,0,1189,439,0,0,0,0,0,0,0,0,0,0,0,0,0,0,0,0
104,0,4201,4227.153809,4220.487305,4224.07666,4222.025391,4227.153809,4210.743652,4207.153809,4187.153809,4184.589844,4185.102539,4175.871582,4213.307617,4184.07666,933,2043,2042,0,0,0,1189,446,0,0,0,0,0,0,0,0,0,0,0,0,0,0,0,0
105,0,4225.666504,4250.281738,4240.538574,4252.333008,4242.07666,4247.717773,4233.358887,4230.794922,4214.897461,4212.846191,4213.871582,4201.563965,4235.922852,4209.769043,472,2045,2041,0,0,0,1189,454,0,0,0,0,0,0,0,0,0,0,0,0,0,0,0,0
106,0,4172.820313,4190.256348,4183.589844,4192.307617,4173.333008,4185.12793,4174.358887,4171.281738,4160.512695,4155.897461,4159.487305,4149.743652,4177.436035,4156.922852,298,2046,2041,0,0,0,1189,461,0,0,0,0,0,0,0,0,0,0,0,0,0,0,0,0
107,0,4097.589844,4119.641113,4112.461426,4115.538574,4100.666504,4119.12793,4105.281738,4096.05127,4068.871582,4068.358887,4067.333008,4062.717773,4100.666504,4072.461426,560,2047,2041,0,0,0,1189,468,0,0,0,0,0,0,0,0,0,0,0,0,0,0,0,0
108,0,4128.615234,4150.153809,4142.974121,4146.563965,4135.281738,4149.641113,4136.307617,4121.94873,4088.102539,4090.666504,4088.615234,4095.794922,4132.717773,4099.384277,933,2047,2040,0,0,0,1189,476,0,0,0,0,0,0,0,0,0,0,0,0,0,0,0,0
109,0,4180.743652,4200.743652,4191.512695,4198.179199,4191.512695,4196.641113,4186.384277,4174.07666,4145.871582,4146.897461,4144.846191,4147.410156,4182.281738,4152.538574,472,2049,2040,0,0,0,1189,483,0,0,0,0,0,0,0,0,0,0,0,0,0,0,0,0
110,0,4114.358887,4131.794922,4125.12793,4125.641113,4128.717773,4129.230469,4116.922852,4109.230469,4084.102539,4082.563965,4085.12793,4080.512695,4111.794922,4087.179199,298,2049,2041,0,0,0,1189,490,0,0,0,0,0,0,0,0,0,0,0,0,0,0,0,0
111,0,4253.358887,4266.179199,4262.07666,4257.461426,4263.102539,4268.230469,4254.384277,4242.589844,4213.358887,4213.358887,4213.871582,4220.025391,4251.307617,4220.538574,560,2050,2043,0,0,0,1189,498,0,0,0,0,0,0,0,0,0,0,0,0,0,0,0,0
112,0,4119.743652,4138.205078,4130.512695,4132.05127,4133.07666,4138.717773,4127.436035,4107.94873,4073.07666,4073.07666,4067.94873,4077.179199,4116.666504,4079.230469,933,2050,2041,0,0,0,1189,505,0,0,0,0,0,0,0,0,0,0,0,0,0,0,0,0
113,0,4173.436035,4191.384277,4183.179199,4183.692383,4184.205078,4184.205078,4173.436035,4164.205078,4132.922852,4131.897461,4133.436035,4136,4170.358887,4136.512695,472,2049,2041,0,0,0,1189,512,0,0,0,0,0,0,0,0,0,0,0,0,0,0,0,0
114,0,4243.358887,4256.179199,4250.538574,4248.487305,4252.589844,4251.05127,4241.307617,4238.743652,4208.487305,4207.974121,4210.025391,4208.487305,4243.871582,4207.974121,298,2046,2039,0,0,0,1189,520,0,0,0,0,0,0,0,0,0,0,0,0,0,0,0,0
115,0,4188.743652,4199,4197.461426,4194.897461,4200.025391,4197.974121,4192.333008,4184.12793,4153.358887,4151.820313,4150.281738,4154.384277,4188.230469,4152.333008,560,2044,2036,0,0,0,1189,527,0,0,0,0,0,0,0,0,0,0,0,0,0,0,0,0
116,0,4102.358887,4110.563965,4108.512695,4107.487305,4109.025391,4108.512695,4103.897461,4091.07666,4062.358887,4061.333008,4062.358887,4068.512695,4097.230469,4068,933,2043,2036,0,0,0,1189,534,0,0,0,0,0,0,0,0,0,0,0,0,0,0,0,0
117,0,4147.743652,4161.589844,4154.410156,4159.025391,4158.512695,4161.589844,4153.384277,4133.384277,4098.512695,4099.538574,4100.563965,4104.666504,4141.07666,4109.794922,472,2042,2036,0,0,0,1189,542,0,0,0,0,0,0,0,0,0,0,0,0,0,0,0,0
118,0,4249.820313,4262.641113,4257.512695,4255.974121,4260.07666,4261.615234,4250.846191,4230.846191,4198.025391,4197,4195.461426,4208.794922,4244.179199,4206.743652,298,2041,2036,0,0,0,1189,549,0,0,0,0,0,0,0,0,0,0,0,0,0,0,0,0
119,0,4114.820313,4127.12793,4123.025391,4115.846191,4124.563965,4123.025391,4114.820313,4098.922852,4070.717773,4068.666504,4068.153809,4074.307617,4111.230469,4074.820313,560,2038,2039,0,0,0,1189,557,0,0,0,0,0,0,0,0,0,0,0,0,0,0,0,0
120,0,4162.717773,4178.102539,4173.487305,4170.410156,4176.05127,4174,4168.358887,4151.94873,4118.102539,4118.615234,4119.641113,4119.12793,4158.615234,4128.358887,933,2036,2039,0,0,0,1189,564,0,0,0,0,0,0,0,0,0,0,0,0,0,0,0,0
121,0,4175.820313,4190.179199,4184.538574,4181.974121,4188.641113,4185.563965,4178.384277,4160.94873,4123.512695,4125.05127,4123,4133.769043,4168.12793,4138.384277,472,2036,2038,0,0,0,1189,571,0,0,0,0,0,0,0,0,0,0,0,0,0,0,0,0
122,0,4155.743652,4175.230469,4163.94873,4163.94873,4170.615234,4169.07666,4160.871582,4141.897461,4106.512695,4104.461426,4103.436035,4108.563965,4149.07666,4115.230469,298,2032,2038,0,0,0,1189,579,0,0,0,0,0,0,0,0,0,0,0,0,0,0,0,0
123,0,4150.717773,4169.692383,4160.461426,4159.436035,4156.871582,4165.589844,4156.871582,4139.436035,4106.615234,4106.102539,4109.179199,4108.666504,4148.153809,4115.333008,560,2031,2038,0,0,0,1189,586,0,0,0,0,0,0,0,0,0,0,0,0,0,0,0,0
124,0,4251.666504,4266.538574,4261.922852,4259.358887,4254.230469,4266.025391,4262.94873,4240.384277,4205,4205.512695,4203.974121,4209.102539,4248.07666,4212.179199,933,2031,2038,0,0,0,1189,593,0,0,0,0,0,0,0,0,0,0,0,0,0,0,0,0
125,0,4087.692383,4104.102539,4097.436035,4093.333008,4100,4102.05127,4101.025391,4071.794922,4034.871582,4033.846191,4030.769043,4038.461426,4079.487305,4040.512695,472,2033,2038,0,0,0,1189,601,0,0,0,0,0,0,0,0,0,0,0,0,0,0,0,0
126,0,4129.846191,4145.230469,4136,4125.230469,4141.12793,4140.102539,4134.974121,4107.794922,4071.384277,4072.410156,4075.487305,4083.179199,4120.615234,4083.692383,298,2033,2041,0,0,0,1189,608,0,0,0,0,0,0,0,0,0,0,0,0,0,0,0,0
127,0,4167.179199,4185.641113,4176.410156,4161.025391,4179.487305,4183.07666,4172.820313,4150.256348,4105.641113,4107.692383,4109.230469,4114.871582,4160,4119.487305,560,2034,2044,0,0,0,1189,615,0,0,0,0,0,0,0,0,0,0,0,0,0,0,0,0
128,0,4230.281738,4244.12793,4239,4224.641113,4241.563965,4242.07666,4224.12793,4213.358887,4180.025391,4177.974121,4179,4185.153809,4224.641113,4188.230469,933,2038,2046,0,0,0,1189,623,0,0,0,0,0,0,0,0,0,0,0,0,0,0,0,0
0,0,4079.436035,4091.230469,4083.025391,4073.794922,4086.615234,4083.538574,4068.666504,4063.025391,4042.512695,4041.487305,4043.538574,4038.410156,4076.358887,4046.615234,271,2040,2046,0,0,0,1189,630,2,0,0,0,0,0,0,0,0,0,0,0,0,0,0,0
1,0,4146.871582,4162.769043,4150.461426,4141.743652,4155.589844,4152,4143.281738,4135.589844,4102.769043,4105.846191,4107.384277,4097.12793,4139.692383,4111.487305,315,2039,2047,0,0,0,1189,637,2,3,0,0,0,0,0,0,0,0,0,0,0,0,0,0
2,0,4256.436035,4268.743652,4259.512695,4246.692383,4263.102539,4260.025391,4244.12793,4242.07666,4208.743652,4209.256348,4212.846191,4215.922852,4248.230469,4221.563965,405,2042,2048,0,0,0,1189,645,2,3,4,0,0,0,0,0,0,0,0,0,0,0,4,0
3,0,4097.897461,4113.281738,4102,4089.179199,4106.615234,4103.025391,4087.641113,4085.07666,4060.461426,4059.436035,4060.974121,4060.461426,4093.281738,4064.563965,435,2043,2046,0,0,0,1189,652,2,3,4,4,0,0,0,0,0,0,0,0,0,0,4,4
4,0,4093.538574,4106.871582,4094.563965,4083.794922,4099.692383,4095.07666,4088.922852,4081.743652,4059.179199,4062.769043,4063.281738,4056.615234,4085.846191,4062.256348,345,2045,2047,0,0,0,1189,659,2,3,4,4,3,0,0,0,0,0,0,0,0,0,4,4
5,0,4244.538574,4255.820313,4246.589844,4236.333008,4249.666504,4250.179199,4241.461426,4233.769043,4213.256348,4215.307617,4218.384277,4211.717773,4235.820313,4218.897461,391,2046,2047,0,0,0,1189,667,2,3,4,4,3,3,0,0,0,0,0,0,0,0,4,4
6,0,4257.410156,4273.307617,4265.615234,4251.769043,4266.641113,4270.230469,4258.436035,4247.153809,4227.153809,4224.589844,4228.692383,4219.974121,4249.717773,4232.794922,99,2045,2043,0,0,0,1189,674,2,3,4,4,3,3,1,0,0,0,0,0,0,0,4,4
7,0,4238.12793,4245.820313,4238.641113,4224.281738,4238.641113,4240.179199,4231.974121,4220.692383,4201.717773,4200.692383,4203.769043,4200.179199,4227.358887,4211.461426,343,2046,2042,0,0,0,1189,682,2,3,4,4,3,3,1,3,0,0,0,0,0,0,4,4
8,0,4274.07666,4282.794922,4270.487305,4264.333008,4278.692383,4278.179199,4269.974121,4259.717773,4237.153809,4240.743652,4237.666504,4230.487305,4264.846191,4247.410156,884,2047,2043,0,0,0,1189,689,2,3,4,4,3,3,1,3,4,0,0,0,0,0,4,4
9,0,4166.05127,4177.846191,4167.07666,4159.384277,4172.717773,4171.692383,4163.487305,4153.230469,4132.717773,4137.333008,4136.820313,4123.487305,4159.384277,4145.538574,853,2047,2043,0,0,0,1189,696,2,3,4,4,3,3,1,3,4,4,0,0,0,0,4,4
10,0,4176.102539,4183.281738,4176.615234,4165.333008,4175.589844,4174.563965,4169.94873,4159.179199,4139.692383,4143.281738,4145.846191,4137.641113,4167.384277,4158.153809,300,2047,2042,0,0,0,1189,705,2,3,4,4,3,3,1,3,4,4,3,0,0,0,4,4
11,0,4138.922852,4151.230469,4138.410156,4136.358887,4145.07666,4145.07666,4139.94873,4123.538574,4093.794922,4097.384277,4096.871582,4093.794922,4126.615234,4113.281738,565,2048,2043,0,0,0,1189,713,2,3,4,4,3,3,1,3,4,4,3,4,0,0,4,4
12,0,4125.025391,4134.769043,4119.384277,4120.410156,4128.102539,4129.12793,4120.410156,4110.153809,4078.871582,4082.461426,4084,4082.974121,4112.717773,4096.820313,938,2048,2042,0,0,0,1189,721,2,3,4,4,3,3,1,3,4,4,3,4,4,0,4,4
13,0,4259.102539,4265.769043,4252.94873,4250.897461,4258.07666,4255.512695,4250.897461,4246.281738,4226.281738,4227.307617,4229.358887,4218.07666,4246.794922,4237.05127,473,2047,2045,0,0,0,1189,730,2,3,4,4,3,3,1,3,4,4,3,4,4,4,4,4
14,0,4139.743652,4142.820313,4132.563965,4129.487305,4136.153809,4132.05127,4129.487305,4120.769043,4111.025391,4111.025391,4114.102539,4097.179199,4122.307617,4121.281738,300,2047,2047,0,0,0,1189,738,2,3,4,4,3,3,1,3,4,4,3,4,4,4,4,4
15,0,4275.820313,4274.281738,4264.538574,4264.538574,4266.07666,4268.12793,4263.512695,4253.256348,4240.436035,4239.922852,4246.07666,4231.717773,4257.871582,4255.820313,565,2049,2046,0,0,0,1189,746,2,3,4,4,3,3,1,3,4,4,3,4,4,4,4,4
16,0,4108.102539,4111.692383,4100.922852,4102.461426,4102.461426,4106.05127,4105.538574,4092.205078,4070.666504,4069.641113,4073.743652,4059.384277,4092.717773,4085.538574,0,2048,2046,0,0,0,1189,755,2,3,4,4,3,3,1,3,4,4,3,4,4,4,4,4
17,0,4096.666504,4100.769043,4088.974121,4083.846191,4091.538574,4089.487305,4090.512695,4077.179199,4059.230469,4060.769043,4063.846191,4057.179199,4079.230469,4074.615234,0,2047,2045,0,0,0,1189,763,2,3,4,4,3,3,1,3,4,4,3,4,4,4,4,4
18,0,4280.743652,4283.820313,4268.94873,4266.384277,4274.07666,4273.563965,4269.461426,4260.743652,4246.897461,4250.487305,4252.025391,4242.281738,4263.307617,4258.179199,0,2047,2045,0,0,0,1189,771,2,3,4,4,3,3,1,3,4,4,3,4,4,4,4,4
19,0,4251.769043,4253.820313,4242.025391,4245.102539,4246.12793,4248.179199,4240.487305,4238.436035,4226.12793,4224.07666,4228.692383,4212.281738,4238.94873,4231.769043,0,2046,2047,0,0,0,1189,780,2,3,4,4,3,3,1,3,4,4,3,4,4,4,4,4
20,0,4174.820313,4173.794922,4165.589844,4163.538574,4167.12793,4168.666504,4159.436035,4157.384277,4144.05127,4142,4148.153809,4136.871582,4162,4155.846191,0,2046,2047,0,0,0,1189,788,2,3,4,4,3,3,1,3,4,4,3,4,4,4,4,4
21,0,4206.743652,4206.743652,4197.512695,4189.307617,4201.615234,4198.538574,4192.384277,4184.179199,4161.102539,4166.743652,4169.820313,4158.538574,4187.256348,4184.692383,0,2045,2045,0,0,0,1189,796,2,3,4,4,3,3,1,3,4,4,3,4,4,4,4,4
22,0,4275.820313,4270.179199,4264.025391,4256.333008,4265.563965,4263.512695,4259.410156,4249.666504,4229.153809,4228.641113,4235.820313,4227.615234,4254.794922,4254.794922,0,2043,2045,0,0,0,1189,805,2,3,4,4,3,3,1,3,4,4,3,4,4,4,4,4
23,0,4280.230469,4273.563965,4266.897461,4267.410156,4268.94873,4267.922852,4269.461426,4254.07666,4235.102539,4227.922852,4235.102539,4229.974121,4261.256348,4255.615234,0,2043,2046,0,0,0,1189,813,2,3,4,4,3,3,1,3,4,4,3,4,4,4,4,4
24,0,4100.769043,4095.12793,4083.333008,4088.974121,4092.05127,4087.94873,4088.461426,4071.025391,4042.820313,4044.871582,4048.974121,4045.384277,4076.153809,4067.436035,0,2041,2046,0,0,0,1189,821,2,3,4,4,3,3,1,3,4,4,3,4,4,4,4,4
25,0,4276.487305,4266.230469,4253.922852,4255.461426,4259.05127,4257.512695,4255.974121,4244.179199,4216.487305,4224.692383,4226.230469,4225.205078,4247.769043,4245.205078,0,2041,2047,0,0,0,1189,830,2,3,4,4,3,3,1,3,4,4,3,4,4,4,4,4
26,0,4212.846191,4207.717773,4191.820313,4197.974121,4194.384277,4197.974121,4200.538574,4188.743652,4168.230469,4170.281738,4171.307617,4159.512695,4189.769043,4188.743652,0,2038,2045,0,0,0,1189,838,2,3,4,4,3,3,1,3,4,4,3,4,4,4,4,4
27,0,4175.897461,4172.307617,4156.410156,4162.05127,4153.333008,4163.589844,4162.05127,4152.820313,4142.05127,4137.94873,4147.692383,4131.281738,4159.487305,4156.922852,0,2037,2046,0,0,0,1189,847,2,3,4,4,3,3,1,3,4,4,3,4,4,4,4,4
28,0,4120.974121,4116.358887,4103.025391,4098.922852,4100.974121,4111.230469,4108.666504,4095.846191,4087.12793,4085.07666,4092.769043,4077.384277,4102.512695,4099.436035,0,2037,2046,0,0,0,1189,855,2,3,4,4,3,3,1,3,4,4,3,4,4,4,4,4
29,0,4239.358887,4237.820313,4227.05127,4219.358887,4232.692383,4233.205078,4232.179199,4214.230469,4203.974121,4206.025391,4206.025391,4192.692383,4218.846191,4218.846191,0,2038,2044,0,0,0,1189,863,2,3,4,4,3,3,1,3,4,4,3,4,4,4,4,4
30,0,4248.333008,4247.820313,4236.538574,4228.846191,4241.666504,4240.641113,4236.025391,4224.230469,4218.589844,4220.12793,4224.743652,4212.436035,4232.94873,4235,0,2036,2045,0,0,0,1189,872,2,3,4,4,3,3,1,3,4,4,3,4,4,4,4,4
31,0,4186.769043,4190.871582,4175.487305,4166.256348,4179.07666,4185.230469,4181.641113,4167.794922,4156.512695,4155.487305,4165.230469,4146.256348,4172.922852,4171.897461,0,2036,2046,0,0,0,1189,880,2,3,4,4,3,3,1,3,4,4,3,4,4,4,4,4
32,0,4249.871582,4250.897461,4240.641113,4227.820313,4242.179199,4245.256348,4243.717773,4226.281738,4208.846191,4210.384277,4217.05127,4206.281738,4231.922852,4230.384277,0,2034,2045,0,0,0,1189,888,2,3,4,4,3,3,1,3,4,4,3,4,4,4,4,4
33,0,4141.281738,4140.769043,4132.05127,4123.846191,4137.692383,4133.07666,4134.102539,4115.641113,4097.179199,4101.794922,4101.281738,4098.205078,4126.410156,4121.794922,0,2034,2046,0,0,0,1189,897,2,3,4,4,3,3,1,3,4,4,3,4,4,4,4,4
34,0,4235.256348,4235.769043,4221.922852,4219.358887,4230.12793,4230.12793,4229.102539,4210.641113,4191.666504,4193.717773,4194.743652,4183.461426,4217.307617,4215.256348,0,2036,2045,0,0,0,1189,905,2,3,4,4,3,3,1,3,4,4,3,4,4,4,4,4
35,0,4114.615234,4106.410156,4094.615234,4092.563965,4095.12793,4102.307617,4095.12793,4081.794922,4068.974121,4066.922852,4074.102539,4063.846191,4087.94873,4094.102539,0,2036,2043,0,0,0,1189,913,2,3,4,4,3,3,1,3,4,4,3,4,4,4,4,4
36,0,4115.07666,4108.410156,4097.12793,4096.102539,4099.179199,4103.794922,4098.666504,4082.256348,4067.384277,4065.846191,4071.487305,4063.281738,4087.897461,4089.94873,0,2036,2045,0,0,0,1189,922,2,3,4,4,3,3,1,3,4,4,3,4,4,4,4,4
37,0,4191.487305,4187.897461,4173.538574,4168.410156,4180.205078,4181.230469,4182.256348,4160.205078,4142.256348,4143.281738,4148.410156,4140.717773,4164.307617,4166.358887,0,2038,2045,0,0,0,1189,930,2,3,4,4,3,3,1,3,4,4,3,4,4,4,4,4
38,0,4214.538574,4206.846191,4193,4184.281738,4197.102539,4202.230469,4201.205078,4180.692383,4164.794922,4163.769043,4169.410156,4161.205078,4184.281738,4190.436035,0,2039,2045,0,0,0,1189,938,2,3,4,4,3,3,1,3,4,4,3,4,4,4,4,4
39,0,4132.05127,4121.794922,4111.025391,4106.410156,4114.615234,4120.769043,4115.641113,4096.666504,4074.615234,4074.102539,4079.230469,4070.512695,4099.743652,4101.281738,0,2041,2045,0,0,0,1189,947,2,3,4,4,3,3,1,3,4,4,3,4,4,4,4,4
40,0,4169.12793,4157.846191,4142.974121,4141.436035,4147.589844,4153.743652,4149.641113,4127.589844,4105.025391,4106.563965,4112.717773,4109.641113,4136.307617,4136.820313,0,2043,2046,0,0,0,1189,955,2,3,4,4,3,3,1,3,4,4,3,4,4,4,4,4
41,0,4147.436035,4143.846191,4122.820313,4121.794922,4133.07666,4136.666504,4130.512695,4108.974121,4085.897461,4087.436035,4090.512695,4088.461426,4116.666504,4114.615234,0,2045,2046,0,0,0,1189,963,2,3,4,4,3,3,1,3,4,4,3,4,4,4,4,4
42,0,4111.436035,4107.333008,4093.487305,4086.820313,4095.025391,4102.717773,4091.94873,4079.641113,4055.025391,4055.025391,4058.102539,4057.589844,4081.692383,4075.538574,0,2045,2047,0,0,0,1189,972,2,3,4,4,3,3,1,3,4,4,3,4,4,4,4,4
43,0,4107.589844,4096.820313,4087.07666,4078.358887,4077.333008,4093.230469,4085.538574,4073.230469,4049.12793,4050.666504,4055.794922,4052.205078,4075.794922,4071.179199,0,2046,2046,0,0,0,1189,980,2,3,4,4,3,3,1,3,4,4,3,4,4,4,4,4
44,0,4146.102539,4137.897461,4121.487305,4118.410156,4116.871582,4132.256348,4126.615234,4105.589844,4080.974121,4083.025391,4087.641113,4081.487305,4108.666504,4107.12793,0,2045,2047,0,0,0,1189,988,2,3,4,4,3,3,1,3,4,4,3,4,4,4,4,4
45,0,4287.615234,4279.922852,4265.05127,4260.436035,4260.94873,4273.256348,4266.589844,4249.666504,4229.666504,4227.615234,4231.205078,4233.769043,4253.256348,4252.743652,0,2045,2047,0,0,0,1189,997,2,3,4,4,3,3,1,3,4,4,3,4,4,4,4,4
46,0,4282.384277,4280.333008,4265.461426,4263.410156,4264.436035,4272.12793,4273.153809,4258.281738,4236.743652,4234.692383,4236.743652,4233.153809,4258.281738,4254.692383,0,2046,2047,0,0,0,1190,5,2,3,4,4,3,3,1,3,4,4,3,4,4,4,4,4
47,0,4230.897461,4230.897461,4212.436035,4212.94873,4219.615234,4220.641113,4227.820313,4204.230469,4186.794922,4186.794922,4193.974121,4180.641113,4207.307617,4206.281738,0,2048,2049,0,0,0,1190,13,2,3,4,4,3,3,1,3,4,4,3,4,4,4,4,4
48,0,4173.538574,4167.897461,4149.94873,4147.384277,4159.692383,4159.179199,4162.256348,4137.12793,4124.307617,4123.281738,4132,4122.769043,4145.333008,4143.794922,0,2047,2048,0,0,0,1190,22,2,3,4,4,3,3,1,3,4,4,3,4,4,4,4,4
49,0,4231.307617,4229.769043,4212.846191,4213.358887,4223.615234,4227.205078,4224.12793,4205.666504,4180.025391,4177.461426,4182.07666,4178.487305,4206.692383,4198.487305,0,2046,2049,0,0,0,1190,30,2,3,4,4,3,3,1,3,4,4,3,4,4,4,4,4
50,0,4194.922852,4196.974121,4178.512695,4181.589844,4186.717773,4190.307617,4184.666504,4169.794922,4151.333008,4149.794922,4156.974121,4150.820313,4173.384277,4169.794922,0,2047,2049,0,0,0,1190,39,2,3,4,4,3,3,1,3,4,4,3,4,4,4,4,4
51,0,4146.102539,4148.153809,4127.641113,4127.12793,4138.922852,4137.897461,4130.717773,4116.358887,4116.358887,4116.358887,4123.025391,4100.461426,4120.461426,4125.589844,0,2046,2048,0,0,0,1190,46,2,3,4,4,3,3,1,3,4,4,3,4,4,4,4,4
52,0,4133.07666,4133.07666,4118.205078,4111.025391,4124.358887,4126.410156,4115.641113,4107.436035,4103.846191,4102.820313,4107.436035,4086.410156,4105.897461,4111.538574,0,2044,2046,0,0,0,1190,53,2,3,4,4,3,3,1,3,4,4,3,4,4,4,4,4
53,0,4302.07666,4297.461426,4286.179199,4276.94873,4290.794922,4293.358887,4275.410156,4274.897461,4261.05127,4259.512695,4264.12793,4258.487305,4275.410156,4274.897461,0,2044,2045,0,0,0,1190,61,2,3,4,4,3,3,1,3,4,4,3,4,4,4,4,4
54,0,4112.922852,4116,4098.563965,4095.487305,4113.94873,4108.307617,4093.94873,4085.743652,4071.897461,4072.410156,4077.025391,4064.717773,4086.769043,4084.717773,0,2044,2041,0,0,0,1190,68,2,3,4,4,3,3,1,3,4,4,3,4,4,4,4,4
55,0,4275.410156,4279,4261.563965,4265.153809,4265.666504,4271.820313,4266.179199,4251.307617,4242.07666,4243.102539,4249.256348,4233.871582,4254.897461,4252.846191,0,2044,2042,0,0,0,1190,75,2,3,4,4,3,3,1,3,4,4,3,4,4,4,4,4
56,0,4141.743652,4146.358887,4130.461426,4134.563965,4124.307617,4143.794922,4140.205078,4122.256348,4108.410156,4108.410156,4109.436035,4097.641113,4124.820313,4115.07666,0,2043,2040,0,0,0,1190,83,2,3,4,4,3,3,1,3,4,4,3,4,4,4,4,4
57,0,4208.692383,4217.922852,4201.512695,4201.512695,4205.615234,4211.769043,4208.692383,4187.153809,4170.230469,4169.205078,4172.281738,4161,4186.12793,4178.436035,0,2044,2041,0,0,0,1190,90,2,3,4,4,3,3,1,3,4,4,3,4,4,4,4,4
58,0,4169.897461,4176.05127,4159.12793,4162.205078,4168.358887,4167.846191,4163.743652,4147.846191,4139.641113,4138.102539,4144.769043,4132.461426,4148.871582,4149.897461,0,2045,2041,0,0,0,1190,97,2,3,4,4,3,3,1,3,4,4,3,4,4,4,4,4
59,0,4157.333008,4166.563965,4146.563965,4152.717773,4154.256348,4159.897461,4157.333008,4140.922852,4138.358887,4137.333008,4139.384277,4118.871582,4144,4139.897461,0,2045,2044,0,0,0,1190,105,2,3,4,4,3,3,1,3,4,4,3,4,4,4,4,4
60,0,4222.794922,4230.487305,4214.07666,4213.563965,4221.769043,4224.333008,4223.307617,4203.820313,4200.743652,4202.794922,4204.333008,4187.922852,4208.436035,4202.794922,0,2044,2044,0,0,0,1190,112,2,3,4,4,3,3,1,3,4,4,3,4,4,4,4,4
61,0,4155.641113,4163.333008,4148.974121,4149.487305,4162.307617,4161.281738,4159.230469,4140.769043,4131.025391,4132.563965,4136.666504,4122.307617,4141.794922,4136.666504,0,2045,2046,0,0,0,1190,119,2,3,4,4,3,3,1,3,4,4,3,4,4,4,4,4
62,0,4228.641113,4238.897461,4221.461426,4226.07666,4236.333008,4238.897461,4232.743652,4214.281738,4207.102539,4206.07666,4209.153809,4192.230469,4216.846191,4208.12793,0,2045,2045,0,0,0,1190,127,2,3,4,4,3,3,1,3,4,4,3,4,4,4,4,4
63,0,4187.230469,4199.025391,4179.025391,4179.538574,4191.333008,4192.871582,4189.281738,4167.230469,4167.743652,4167.230469,4168.769043,4159.538574,4176.974121,4166.717773,0,2045,2043,0,0,0,1190,134,2,3,4,4,3,3,1,3,4,4,3,4,4,4,4,4
64,0,4089.538574,4107.487305,4087.487305,4088,4099.281738,4098.256348,4100.820313,4078.256348,4069.538574,4069.025391,4067.487305,4055.179199,4081.846191,4066.974121,271,2045,2044,0,0,0,1190,141,2,3,4,4,3,3,1,3,4,4,3,4,4,4,4,4
65,0,4177.179199,4187.94873,4173.589844,4172.05127,4184.358887,4183.846191,4182.307617,4170,4162.307617,4161.281738,4163.333008,4143.333008,4169.487305,4158.205078,315,2047,2044,0,0,0,1190,149,2,3,4,4,3,3,1,3,4,4,3,4,4,4,4,4
66,0,4171.743652,4179.94873,4163.538574,4157.897461,4173.794922,4175.846191,4171.230469,4163.025391,4165.589844,4166.102539,4171.230469,4145.07666,4165.07666,4158.410156,404,2047,2045,0,0,0,1190,156,2,3,4,4,3,3,1,3,4,4,3,4,4,4,4,4
67,0,4181.589844,4193.897461,4175.436035,4166.717773,4183.641113,4187.230469,4186.717773,4171.333008,4163.12793,4165.692383,4167.743652,4147.743652,4172.871582,4162.615234,436,2047,2044,0,0,0,1190,163,2,3,4,4,3,3,1,3,4,4,3,4,4,4,4,4
68,0,4091.692383,4094.769043,4084,4068.615234,4087.589844,4091.692383,4095.281738,4073.230469,4058.871582,4059.384277,4059.384277,4051.692383,4077.846191,4062.974121,345,2046,2043,0,0,0,1190,171,2,3,4,4,3,3,1,3,4,4,3,4,4,4,4,4
69,0,4198.641113,4204.281738,4194.025391,4177.615234,4197.615234,4203.256348,4203.256348,4183.769043,4171.974121,4173.512695,4173.512695,4159.153809,4186.333008,4172.487305,391,2047,2043,0,0,0,1190,178,2,3,4,4,3,3,1,3,4,4,3,4,4,4,4,4
70,0,4139.641113,4149.897461,4137.589844,4120.666504,4142.205078,4143.230469,4137.07666,4128.358887,4116.05127,4120.666504,4123.230469,4109.897461,4130.922852,4121.179199,98,2044,2042,0,0,0,1190,186,2,3,4,4,3,3,1,3,4,4,3,4,4,4,4,4
71,0,4163.12793,4169.794922,4157.487305,4136.974121,4162.615234,4158,4160.05127,4148.769043,4133.384277,4136.461426,4136.974121,4130.820313,4153.384277,4142.615234,343,2044,2042,0,0,0,1190,193,2,3,4,4,3,3,1,3,4,4,3,4,4,4,4,4
72,0,4099.589844,4105.743652,4093.94873,4074.461426,4097.538574,4096.512695,4103.692383,4089.333008,4077.538574,4077.538574,4077.025391,4063.179199,4089.333008,4080.102539,884,2043,2044,0,0,0,1190,200,2,3,4,4,3,3,1,3,4,4,3,4,4,4,4,4
73,0,4145.743652,4150.358887,4139.07666,4126.256348,4141.12793,4143.692383,4142.666504,4137.538574,4136,4136.512695,4140.102539,4120.615234,4139.07666,4133.94873,852,2043,2044,0,0,0,1190,208,2,3,4,4,3,3,1,3,4,4,3,4,4,4,4,4
74,0,4119.641113,4129.897461,4114.512695,4111.94873,4122.717773,4123.230469,4121.179199,4112.974121,4108.358887,4111.94873,4112.461426,4088.358887,4113.487305,4105.794922,300,2041,2045,0,0,0,1190,215,2,3,4,4,3,3,1,3,4,4,3,4,4,4,4,4
75,0,4088.615234,4098.871582,4086.05127,4080.922852,4095.794922,4093.230469,4094.769043,4081.94873,4077.333008,4079.897461,4081.436035,4056.820313,4081.94873,4074.769043,578,2041,2046,0,0,0,1190,222,2,3,4,4,3,3,1,3,4,4,3,4,4,4,4,4
76,0,4141.692383,4145.281738,4135.538574,4125.281738,4141.179199,4144.256348,4144.769043,4131.436035,4134.512695,4134,4136.563965,4112.974121,4135.538574,4129.384277,935,2041,2046,0,0,0,1190,230,2,3,4,4,3,3,1,3,4,4,3,4,4,4,4,4
77,0,4212.641113,4217.769043,4204.436035,4199.820313,4212.12793,4216.743652,4214.692383,4199.307617,4196.230469,4196.743652,4197.256348,4176.743652,4201.358887,4194.692383,475,2041,2046,0,0,0,1190,237,2,3,4,4,3,3,1,3,4,4,3,4,4,4,4,4
78,0,4211.769043,4212.794922,4198.436035,4197.922852,4207.666504,4204.589844,4204.07666,4193.820313,4185.615234,4187.153809,4190.743652,4176.897461,4197.410156,4193.307617,300,2043,2045,0,0,0,1190,244,2,3,4,4,3,3,1,3,4,4,3,4,4,4,4,4
79,0,4150.153809,4155.281738,4140.410156,4140.922852,4149.12793,4147.07666,4147.07666,4139.897461,4134.256348,4133.743652,4137.333008,4117.846191,4144,4137.846191,578,2042,2043,0,0,0,1190,252,2,3,4,4,3,3,1,3,4,4,3,4,4,4,4,4
80,0,4223.717773,4228.846191,4218.589844,4214.487305,4220.12793,4224.230469,4224.743652,4213.461426,4217.563965,4216.538574,4219.102539,4195.512695,4218.589844,4212.94873,935,2041,2041,0,0,0,1190,259,2,3,4,4,3,3,1,3,4,4,3,4,4,4,4,4
81,0,4243.871582,4243.358887,4235.153809,4222.846191,4236.179199,4237.205078,4240.794922,4225.922852,4231.05127,4232.07666,4232.589844,4212.589844,4232.589844,4230.538574,475,2040,2042,0,0,0,1190,266,2,3,4,4,3,3,1,3,4,4,3,4,4,4,4,4
82,0,4262.692383,4268.846191,4253.974121,4240.641113,4267.307617,4262.692383,4264.230469,4249.358887,4242.179199,4245.769043,4242.692383,4222.692383,4253.974121,4247.820313,300,2041,2043,0,0,0,1190,274,2,3,4,4,3,3,1,3,4,4,3,4,4,4,4,4
83,0,4144.153809,4150.820313,4138,4126.717773,4146.205078,4144.666504,4143.641113,4133.384277,4123.641113,4127.743652,4127.743652,4111.333008,4140.05127,4130.307617,578,2041,2044,0,0,0,1190,282,2,3,4,4,3,3,1,3,4,4,3,4,4,4,4,4
84,0,4272.025391,4278.179199,4269.974121,4259.717773,4271,4271.512695,4274.589844,4263.820313,4253.05127,4255.102539,4255.102539,4238.179199,4265.871582,4257.666504,935,2043,2043,0,0,0,1190,290,2,3,4,4,3,3,1,3,4,4,3,4,4,4,4,4
85,0,4227.461426,4236.692383,4228.487305,4214.12793,4236.692383,4231.563965,4233.102539,4222.333008,4209.512695,4210.025391,4209,4193.102539,4221.820313,4218.230469,475,2045,2045,0,0,0,1190,298,2,3,4,4,3,3,1,3,4,4,3,4,4,4,4,4
86,0,4104.461426,4114.205078,4105.487305,4090.102539,4114.717773,4108.563965,4108.05127,4100.358887,4091.12793,4093.179199,4089.07666,4076.256348,4103.94873,4099.333008,300,2045,2047,0,0,0,1190,307,2,3,4,4,3,3,1,3,4,4,3,4,4,4,4,4
87,0,4212.846191,4220.538574,4212.846191,4205.666504,4217.974121,4214.897461,4219.512695,4208.743652,4194.384277,4197.461426,4193.871582,4179,4210.794922,4200.025391,578,2047,2046,0,0,0,1190,315,2,3,4,4,3,3,1,3,4,4,3,4,4,4,4,4
88,0,4112.615234,4111.07666,4106.461426,4098.256348,4106.461426,4107.487305,4112.102539,4099.794922,4089.538574,4091.07666,4094.666504,4081.846191,4104.922852,4098.256348,935,2047,2046,0,0,0,1190,323,2,3,4,4,3,3,1,3,4,4,3,4,4,4,4,4
89,0,4157.743652,4155.179199,4150.05127,4135.692383,4151.589844,4153.12793,4156.717773,4144.922852,4142.358887,4141.846191,4146.461426,4124.922852,4148,4148.512695,475,2048,2045,0,0,0,1190,332,2,3,4,4,3,3,1,3,4,4,3,4,4,4,4,4
90,0,4280.692383,4279.153809,4275.05127,4261.717773,4278.12793,4274.025391,4278.641113,4272.487305,4267.871582,4265.820313,4269.410156,4244.794922,4266.846191,4268.384277,300,2047,2043,0,0,0,1190,340,2,3,4,4,3,3,1,3,4,4,3,4,4,4,4,4
91,0,4222.281738,4216.12793,4211,4202.281738,4213.563965,4210.487305,4211.512695,4212.025391,4211.512695,4209.974121,4212.538574,4191,4209.461426,4208.436035,578,2046,2044,0,0,0,1190,348,2,3,4,4,3,3,1,3,4,4,3,4,4,4,4,4
92,0,4237.717773,4237.717773,4227.974121,4221.820313,4231.563965,4233.615234,4235.153809,4228.487305,4233.615234,4235.153809,4234.641113,4203.358887,4230.538574,4228.487305,935,2045,2043,0,0,0,1190,357,2,3,4,4,3,3,1,3,4,4,3,4,4,4,4,4
93,0,4134.307617,4134.820313,4127.12793,4113.794922,4126.615234,4128.153809,4131.230469,4124.563965,4129.179199,4130.717773,4133.281738,4103.538574,4127.12793,4128.666504,475,2046,2043,0,0,0,1190,365,2,3,4,4,3,3,1,3,4,4,3,4,4,4,4,4
94,0,4157.384277,4152.769043,4147.641113,4125.07666,4151.230469,4145.07666,4146.615234,4148.153809,4148.153809,4145.589844,4150.205078,4122.512695,4147.12793,4148.153809,300,2043,2044,0,0,0,1190,373,2,3,4,4,3,3,1,3,4,4,3,4,4,4,4,4
95,0,4224.94873,4218.794922,4213.666504,4193.666504,4219.820313,4212.641113,4214.692383,4210.589844,4213.153809,4210.589844,4218.794922,4184.436035,4212.641113,4215.205078,578,2044,2044,0,0,0,1190,382,2,3,4,4,3,3,1,3,4,4,3,4,4,4,4,4
96,0,4174.461426,4167.794922,4161.641113,4149.333008,4160.615234,4162.666504,4168.307617,4157.025391,4164.717773,4164.717773,4174.974121,4141.12793,4163.179199,4169.333008,935,2043,2043,0,0,0,1190,390,2,3,4,4,3,3,1,3,4,4,3,4,4,4,4,4
97,0,4145.230469,4141.641113,4133.436035,4119.07666,4134.974121,4137.025391,4146.256348,4134.461426,4133.436035,4133.436035,4134.974121,4106.769043,4132.922852,4134.461426,475,2043,2044,0,0,0,1190,398,2,3,4,4,3,3,1,3,4,4,3,4,4,4,4,4
98,0,4272.897461,4262.12793,4258.538574,4229.820313,4261.615234,4256.487305,4262.641113,4259.05127,4258.538574,4257.512695,4258.538574,4233.410156,4257.512695,4255.974121,300,2043,2043,0,0,0,1190,407,2,3,4,4,3,3,1,3,4,4,3,4,4,4,4,4
99,0,4297.563965,4282.692383,4276.538574,4252.94873,4278.07666,4275.512695,4276.025391,4278.589844,4287.307617,4286.281738,4291.922852,4258.07666,4280.12793,4279.615234,578,2043,2044,0,0,0,1190,415,2,3,4,4,3,3,1,3,4,4,3,4,4,4,4,4
100,0,4189.589844,4174.205078,4165.487305,4156.256348,4167.025391,4164.974121,4165.487305,4168.05127,4179.333008,4177.794922,4182.410156,4145.487305,4166.512695,4168.05127,935,2043,2045,0,0,0,1190,423,2,3,4,4,3,3,1,3,4,4,3,4,4,4,4,4
101,0,4145.794922,4121.692383,4116.563965,4107.333008,4117.589844,4111.94873,4113.487305,4120.666504,4136.05127,4133.487305,4137.07666,4105.794922,4120.666504,4125.794922,475,2045,2044,0,0,0,1190,432,2,3,4,4,3,3,1,3,4,4,3,4,4,4,4,4
102,0,4241.205078,4221.205078,4214.025391,4204.281738,4215.05127,4213.512695,4211.974121,4220.692383,4237.615234,4236.07666,4237.615234,4199.666504,4221.205078,4223.256348,300,2044,2045,0,0,0,1190,440,2,3,4,4,3,3,1,3,4,4,3,4,4,4,4,4
103,0,4198.666504,4184.820313,4177.12793,4159.692383,4166.358887,4177.12793,4171.487305,4177.641113,4192,4192.512695,4196.102539,4159.692383,4178.666504,4180.205078,578,2045,2044,0,0,0,1190,449,2,3,4,4,3,3,1,3,4,4,3,4,4,4,4,4
104,0,4143.179199,4127.281738,4121.12793,4097.538574,4106.256348,4117.538574,4119.589844,4118.05127,4127.794922,4128.820313,4132.410156,4099.589844,4119.589844,4122.153809,935,2045,2044,0,0,0,1190,457,2,3,4,4,3,3,1,3,4,4,3,4,4,4,4,4
105,0,4238.641113,4220.692383,4215.05127,4200.692383,4214.025391,4211.974121,4221.717773,4217.102539,4226.846191,4226.846191,4227.358887,4190.94873,4217.102539,4216.589844,475,2045,2043,0,0,0,1190,465,2,3,4,4,3,3,1,3,4,4,3,4,4,4,4,4
106,0,4307.717773,4285.153809,4283.102539,4276.436035,4283.615234,4279,4281.563965,4285.666504,4301.05127,4300.538574,4303.102539,4270.794922,4290.281738,4287.205078,300,2045,2042,0,0,0,1190,474,2,3,4,4,3,3,1,3,4,4,3,4,4,4,4,4
107,0,4178.102539,4161.179199,4155.538574,4152.461426,4152.974121,4155.025391,4147.333008,4154.512695,4164.256348,4163.230469,4166.307617,4134.512695,4157.589844,4153.487305,578,2047,2041,0,0,0,1190,482,2,3,4,4,3,3,1,3,4,4,3,4,4,4,4,4
108,0,4206.820313,4187.846191,4178.615234,4173.487305,4174.512695,4177.589844,4171.436035,4176.563965,4190.922852,4187.333008,4191.94873,4159.12793,4178.102539,4180.153809,935,2047,2041,0,0,0,1190,490,2,3,4,4,3,3,1,3,4,4,3,4,4,4,4,4
109,0,4125.94873,4100.307617,4094.153809,4084.410156,4086.461426,4088.512695,4089.025391,4097.743652,4120.307617,4115.692383,4118.769043,4083.384277,4100.307617,4102.871582,475,2045,2038,0,0,0,1190,499,2,3,4,4,3,3,1,3,4,4,3,4,4,4,4,4
110,0,4264.230469,4242.692383,4238.589844,4228.846191,4227.307617,4232.436035,4233.974121,4242.692383,4256.025391,4253.461426,4255.512695,4217.563965,4241.666504,4239.615234,300,2044,2037,0,0,0,1190,507,2,3,4,4,3,3,1,3,4,4,3,4,4,4,4,4
111,0,4116.871582,4091.743652,4088.153809,4079.436035,4072.256348,4084.563965,4080.974121,4088.153809,4100.974121,4099.436035,4105.07666,4071.230469,4090.717773,4091.230469,578,2043,2041,0,0,0,1190,515,2,3,4,4,3,3,1,3,4,4,3,4,4,4,4,4
112,0,4260.436035,4237.358887,4228.12793,4223.512695,4217.871582,4230.692383,4224.538574,4232.230469,4253.256348,4250.179199,4254.281738,4215.307617,4235.820313,4237.358887,935,2043,2040,0,0,0,1190,524,2,3,4,4,3,3,1,3,4,4,3,4,4,4,4,4
113,0,4306.897461,4284.846191,4278.179199,4271,4271.512695,4274.589844,4273.563965,4284.846191,4302.794922,4300.230469,4304.333008,4263.820313,4285.358887,4287.410156,475,2044,2040,0,0,0,1190,532,2,3,4,4,3,3,1,3,4,4,3,4,4,4,4,4
114,0,4170.358887,4143.692383,4142.153809,4134.461426,4136.512695,4134.461426,4136.512695,4147.281738,4158.563965,4157.025391,4163.692383,4126.256348,4146.769043,4147.281738,300,2042,2043,0,0,0,1190,540,2,3,4,4,3,3,1,3,4,4,3,4,4,4,4,4
115,0,4236.333008,4213.256348,4207.102539,4205.05127,4207.615234,4207.102539,4204.025391,4209.153809,4223,4221.461426,4228.12793,4187.615234,4208.12793,4208.641113,578,2043,2044,0,0,0,1190,548,2,3,4,4,3,3,1,3,4,4,3,4,4,4,4,4
116,0,4293.410156,4269.307617,4261.615234,4257.512695,4261.615234,4261.615234,4257.512695,4263.666504,4279.563965,4278.025391,4284.179199,4249.820313,4265.717773,4268.794922,935,2043,2043,0,0,0,1190,556,2,3,4,4,3,3,1,3,4,4,3,4,4,4,4,4
117,0,4203.179199,4182.666504,4176.512695,4169.333008,4176.512695,4172.922852,4173.94873,4181.641113,4185.230469,4184.717773,4186.769043,4155.487305,4179.589844,4177.538574,475,2041,2043,0,0,0,1190,563,2,3,4,4,3,3,1,3,4,4,3,4,4,4,4,4
118,0,4275.717773,4257.769043,4253.666504,4246.487305,4254.692383,4247.512695,4246.487305,4255.205078,4262.384277,4259.820313,4265.974121,4232.641113,4252.12793,4252.12793,300,2040,2039,0,0,0,1190,570,2,3,4,4,3,3,1,3,4,4,3,4,4,4,4,4
119,0,4123.94873,4101.897461,4097.281738,4091.12793,4093.179199,4093.179199,4086,4096.769043,4116.256348,4112.666504,4121.897461,4087.025391,4097.794922,4104.461426,578,2039,2039,0,0,0,1190,578,2,3,4,4,3,3,1,3,4,4,3,4,4,4,4,4
120,0,4134.717773,4117.794922,4111.641113,4103.94873,4098.820313,4110.615234,4103.436035,4115.230469,4128.563965,4127.538574,4132.666504,4093.179199,4113.692383,4119.846191,935,2040,2039,0,0,0,1190,585,2,3,4,4,3,3,1,3,4,4,3,4,4,4,4,4
121,0,4150.205078,4134.820313,4130.205078,4122.512695,4113.794922,4124.05127,4121.487305,4135.846191,4151.230469,4151.230469,4158.410156,4118.410156,4135.846191,4143.025391,475,2041,2040,0,0,0,1190,592,2,3,4,4,3,3,1,3,4,4,3,4,4,4,4,4
122,0,4159.743652,4144.871582,4136.666504,4144.871582,4133.07666,4131.538574,4133.589844,4146.410156,4170,4165.897461,4173.07666,4128.974121,4146.410156,4151.538574,300,2039,2042,0,0,0,1190,600,2,3,4,4,3,3,1,3,4,4,3,4,4,4,4,4
123,0,4272.692383,4258.333008,4247.563965,4270.12793,4249.102539,4246.538574,4246.025391,4260.897461,4281.410156,4275.256348,4280.897461,4237.820313,4258.846191,4261.410156,578,2041,2044,0,0,0,1190,607,2,3,4,4,3,3,1,3,4,4,3,4,4,4,4,4
124,0,4191.179199,4176.820313,4166.05127,4191.692383,4162.461426,4164,4158.358887,4178.871582,4196.820313,4195.281738,4197.846191,4161.436035,4177.846191,4185.538574,935,2042,2046,0,0,0,1190,614,2,3,4,4,3,3,1,3,4,4,3,4,4,4,4,4
125,0,4298.025391,4289.820313,4276.487305,4303.153809,4277.512695,4273.922852,4275.461426,4286.230469,4302.12793,4302.641113,4302.12793,4265.717773,4283.666504,4292.897461,475,2042,2048,0,0,0,1190,622,2,3,4,4,3,3,1,3,4,4,3,4,4,4,4,4
126,0,4242.589844,4230.281738,4221.05127,4239,4218.487305,4216.436035,4218.487305,4225.666504,4243.615234,4241.05127,4244.641113,4214.897461,4228.743652,4234.897461,300,2042,2047,0,0,0,1190,629,2,3,4,4,3,3,1,3,4,4,3,4,4,4,4,4
127,0,4170.512695,4160.256348,4152.05127,4161.794922,4146.922852,4148.461426,4143.846191,4159.743652,4174.102539,4172.05127,4176.153809,4143.846191,4163.846191,4166.410156,578,2042,2044,0,0,0,1190,636,2,3,4,4,3,3,1,3,4,4,3,4,4,4,4,4
128,0,4236.897461,4231.256348,4222.538574,4231.256348,4222.025391,4217.922852,4218.436035,4235.358887,4243.563965,4241.512695,4246.12793,4208.179199,4231.256348,4233.820313,935,2041,2042,0,0,0,1190,644,2,3,4,4,3,3,1,3,4,4,3,4,4,4,4,4
0,0,4242.846191,4235.153809,4229.512695,4236.179199,4226.436035,4223.358887,4230.025391,4241.820313,4250.538574,4246.94873,4253.102539,4218.743652,4236.179199,4239.769043,271,2042,2041,0,0,0,1190,651,2,3,4,4,3,3,1,3,4,4,3,4,4,4,4,4
1,0,4270.230469,4267.153809,4261,4271.769043,4256.897461,4258.436035,4262.538574,4271.769043,4283.05127,4281,4283.563965,4245.102539,4266.12793,4269.205078,315,2043,2041,0,0,0,1190,658,2,3,4,4,3,3,1,3,4,4,3,4,4,4,4,4
2,0,4243.461426,4239.871582,4230.12793,4251.666504,4229.102539,4227.05127,4224.487305,4243.461426,4267.563965,4265.512695,4268.589844,4228.589844,4243.461426,4249.615234,404,2043,2040,0,0,0,1190,666,2,3,4,4,3,3,1,3,4,4,3,4,4,4,4,4
3,0,4129.94873,4124.820313,4113.025391,4142.256348,4116.102539,4113.025391,4107.897461,4130.461426,4154.563965,4150.974121,4155.07666,4115.07666,4130.974121,4138.153809,436,2042,2041,0,0,0,1190,673,2,3,4,4,3,3,1,3,4,4,3,4,4,4,4,4
4,0,4099.743652,4097.179199,4088.461426,4117.179199,4090.512695,4088.974121,4087.436035,4099.743652,4112.05127,4110,4115.12793,4078.717773,4097.179199,4104.871582,345,2043,2042,0,0,0,1190,681,2,3,4,4,3,3,1,3,4,4,3,4,4,4,4,4
5,0,4252.846191,4247.717773,4238.487305,4267.205078,4236.94873,4233.871582,4238.487305,4248.230469,4264.641113,4262.07666,4268.743652,4237.974121,4250.281738,4256.436035,391,2043,2043,0,0,0,1190,688,2,3,4,4,3,3,1,3,4,4,3,4,4,4,4,4
6,0,4115.743652,4112.666504,4101.384277,4131.12793,4102.410156,4098.820313,4103.436035,4116.256348,4135.743652,4131.641113,4135.743652,4098.820313,4117.794922,4113.692383,98,2043,2044,0,0,0,1190,695,2,3,4,4,3,3,1,3,4,4,3,4,4,4,4,4
7,0,4233.666504,4232.12793,4227,4251.102539,4224.436035,4223.410156,4222.897461,4239.307617,4252.641113,4252.641113,4256.230469,4221.871582,4238.794922,4232.12793,342,2042,2043,0,0,0,1190,703,2,3,4,4,3,3,1,3,4,4,3,4,4,4,4,4
8,0,4281.153809,4282.692383,4276.025391,4298.589844,4270.897461,4272.94873,4272.94873,4286.281738,4295.512695,4296.538574,4298.07666,4269.871582,4285.256348,4282.692383,885,2042,2043,0,0,0,1190,710,2,3,4,4,3,3,1,3,4,4,3,4,4,4,4,4
9,0,4237.615234,4238.641113,4228.897461,4255.563965,4228.897461,4229.410156,4228.384277,4240.692383,4253,4247.358887,4250.94873,4220.692383,4238.641113,4234.538574,852,2043,2042,0,0,0,1190,717,2,3,4,4,3,3,1,3,4,4,3,4,4,4,4,4
10,0,4177.641113,4170.461426,4167.897461,4194.05127,4164.307617,4163.794922,4160.717773,4180.205078,4196.615234,4189.94873,4195.07666,4166.871582,4180.717773,4169.94873,300,2043,2041,0,0,0,1190,725,2,3,4,4,3,3,1,3,4,4,3,4,4,4,4,4
11,0,4245.410156,4245.410156,4241.820313,4264.384277,4237.717773,4237.717773,4239.769043,4254.12793,4263.871582,4260.794922,4259.769043,4233.102539,4253.102539,4237.717773,580,2044,2042,0,0,0,1190,733,2,3,4,4,3,3,1,3,4,4,3,4,4,4,4,4
12,0,4224.94873,4229.05127,4220.846191,4236.230469,4218.794922,4220.333008,4221.358887,4228.538574,4234.692383,4231.102539,4230.589844,4209.563965,4230.07666,4214.692383,937,2043,2042,0,0,0,1190,742,2,3,4,4,3,3,1,3,4,4,3,4,4,4,4,4
13,0,4150.512695,4150,4142.820313,4157.692383,4145.384277,4142.820313,4142.820313,4150,4153.589844,4150,4151.025391,4132.563965,4152.563965,4132.563965,474,2043,2042,0,0,0,1190,750,2,3,4,4,3,3,1,3,4,4,3,4,4,4,4,4
14,0,4163.333008,4164.871582,4160.256348,4182.820313,4165.897461,4158.717773,4163.333008,4168.974121,4166.922852,4164.358887,4163.333008,4143.846191,4166.922852,4145.897461,300,2043,2043,0,0,0,1190,759,2,3,4,4,3,3,1,3,4,4,3,4,4,4,4,4
15,0,4150,4151.025391,4144.871582,4167.436035,4145.384277,4141.281738,4142.820313,4155.641113,4158.717773,4154.615234,4155.12793,4138.205078,4154.102539,4138.717773,580,2044,2044,0,0,0,1190,767,2,3,4,4,3,3,1,3,4,4,3,4,4,4,4,4
16,0,4157.692383,4162.820313,4147.436035,4170,4150.512695,4147.94873,4142.820313,4160.769043,4172.563965,4166.410156,4168.461426,4138.717773,4160.769043,4143.333008,0,2044,2045,0,0,0,1190,775,2,3,4,4,3,3,1,3,4,4,3,4,4,4,4,4
17,0,4236.846191,4236.846191,4224.025391,4249.153809,4229.666504,4224.025391,4217.358887,4232.743652,4248.641113,4244.025391,4249.666504,4213.769043,4235.820313,4219.410156,0,2044,2042,0,0,0,1190,784,2,3,4,4,3,3,1,3,4,4,3,4,4,4,4,4
18,0,4109.333008,4099.589844,4097.025391,4121.12793,4094.974121,4091.384277,4089.846191,4102.153809,4114.461426,4110.871582,4114.974121,4088.820313,4106.769043,4092.410156,0,2044,2044,0,0,0,1190,792,2,3,4,4,3,3,1,3,4,4,3,4,4,4,4,4
19,0,4239.717773,4235.615234,4231,4251,4220.230469,4226.897461,4224.333008,4236.641113,4242.281738,4237.153809,4238.692383,4215.102539,4239.205078,4221.256348,0,2044,2043,0,0,0,1190,800,2,3,4,4,3,3,1,3,4,4,3,4,4,4,4,4
20,0,4130.410156,4126.307617,4116.563965,4133.487305,4102.205078,4114.512695,4107.846191,4121.179199,4130.410156,4124.769043,4129.897461,4105.794922,4127.846191,4112.461426,0,2046,2042,0,0,0,1190,809,2,3,4,4,3,3,1,3,4,4,3,4,4,4,4,4
21,0,4201.358887,4194.179199,4184.94873,4207.512695,4179.307617,4183.410156,4180.846191,4189.563965,4196.230469,4192.641113,4196.743652,4170.589844,4192.641113,4180.333008,0,2046,2042,0,0,0,1190,817,2,3,4,4,3,3,1,3,4,4,3,4,4,4,4,4
22,0,4175.230469,4167.025391,4162.410156,4188.05127,4160.358887,4157.281738,4154.205078,4168.563965,4166.512695,4164.461426,4167.538574,4147.025391,4167.538574,4150.615234,0,2047,2042,0,0,0,1190,825,2,3,4,4,3,3,1,3,4,4,3,4,4,4,4,4
23,0,4283.102539,4277.974121,4271.307617,4299.512695,4270.794922,4268.743652,4264.12793,4283.102539,4275.922852,4272.333008,4277.461426,4262.07666,4283.102539,4259,0,2046,2042,0,0,0,1190,834,2,3,4,4,3,3,1,3,4,4,3,4,4,4,4,4
24,0,4108.974121,4111.025391,4100.256348,4131.538574,4104.358887,4102.820313,4097.692383,4110.512695,4102.307617,4098.205078,4102.820313,4081.794922,4106.922852,4086.922852,0,2047,2044,0,0,0,1190,842,2,3,4,4,3,3,1,3,4,4,3,4,4,4,4,4
25,0,4144.256348,4140.153809,4133.487305,4154.512695,4132.974121,4129.897461,4121.692383,4138.615234,4141.179199,4137.07666,4141.692383,4120.153809,4138.102539,4126.307617,0,2045,2045,0,0,0,1190,850,2,3,4,4,3,3,1,3,4,4,3,4,4,4,4,4
26,0,4179.794922,4173.12793,4166.974121,4180.820313,4165.94873,4163.897461,4157.743652,4175.692383,4182.871582,4179.794922,4182.358887,4157.230469,4177.230469,4162.871582,0,2046,2046,0,0,0,1190,859,2,3,4,4,3,3,1,3,4,4,3,4,4,4,4,4
27,0,4099.179199,4093.025391,4088.922852,4104.307617,4088.922852,4086.358887,4082.769043,4098.153809,4101.743652,4098.153809,4102.256348,4079.179199,4099.179199,4082.256348,0,2045,2047,0,0,0,1190,867,2,3,4,4,3,3,1,3,4,4,3,4,4,4,4,4
28,0,4098.666504,4089.436035,4088.922852,4104.307617,4085.846191,4082.256348,4079.179199,4094.05127,4096.615234,4092.512695,4096.615234,4080.717773,4097.12793,4082.769043,0,2045,2047,0,0,0,1190,875,2,3,4,4,3,3,1,3,4,4,3,4,4,4,4,4
29,0,4228.487305,4225.922852,4222.333008,4236.179199,4222.333008,4218.230469,4216.692383,4228.487305,4223.358887,4224.897461,4220.794922,4204.897461,4228.487305,4209.512695,0,2045,2048,0,0,0,1190,884,2,3,4,4,3,3,1,3,4,4,3,4,4,4,4,4
30,0,4146.563965,4142.974121,4140.410156,4150.666504,4139.384277,4135.794922,4133.230469,4148.615234,4142.461426,4145.538574,4142.974121,4129.641113,4149.641113,4129.641113,0,2045,2048,0,0,0,1190,892,2,3,4,4,3,3,1,3,4,4,3,4,4,4,4,4
31,0,4100.615234,4096,4092.922852,4107.281738,4092.410156,4090.871582,4081.12793,4102.153809,4107.794922,4102.153809,4106.769043,4083.179199,4103.692383,4087.794922,0,2043,2043,0,0,0,1190,900,2,3,4,4,3,3,1,3,4,4,3,4,4,4,4,4
32,0,4138.666504,4134.563965,4129.436035,4147.384277,4131.487305,4128.410156,4115.589844,4139.179199,4150.461426,4140.205078,4147.384277,4117.641113,4137.641113,4124.820313,0,2042,2044,0,0,0,1190,909,2,3,4,4,3,3,1,3,4,4,3,4,4,4,4,4
33,0,4116.666504,4111.025391,4106.410156,4121.794922,4106.922852,4102.820313,4095.12793,4116.153809,4118.717773,4115.12793,4117.692383,4099.230469,4116.153809,4099.230469,0,2043,2041,0,0,0,1190,917,2,3,4,4,3,3,1,3,4,4,3,4,4,4,4,4
34,0,4094.410156,4096.461426,4088.256348,4103.641113,4093.897461,4087.230469,4081.589844,4098.512695,4088.256348,4090.307617,4089.794922,4071.333008,4096.461426,4076.461426,0,2043,2042,0,0,0,1190,926,2,3,4,4,3,3,1,3,4,4,3,4,4,4,4,4
35,0,4252.589844,4250.025391,4244.384277,4257.717773,4246.436035,4241.307617,4233.102539,4253.102539,4253.102539,4251.563965,4257.205078,4235.666504,4253.615234,4242.846191,0,2043,2042,0,0,0,1190,933,2,3,4,4,3,3,1,3,4,4,3,4,4,4,4,4
36,0,4176.666504,4170,4166.410156,4179.743652,4165.897461,4161.281738,4156.666504,4178.205078,4187.94873,4182.307617,4186.922852,4163.846191,4180.256348,4171.025391,0,2043,2043,0,0,0,1190,941,2,3,4,4,3,3,1,3,4,4,3,4,4,4,4,4
37,0,4096.974121,4095.94873,4093.384277,4106.205078,4094.922852,4088.769043,4085.692383,4103.641113,4104.666504,4102.615234,4104.153809,4079.025391,4103.12793,4090.307617,0,2043,2045,0,0,0,1190,948,2,3,4,4,3,3,1,3,4,4,3,4,4,4,4,4
38,0,4160,4157.94873,4157.436035,4169.230469,4156.922852,4152.307617,4145.641113,4163.589844,4163.07666,4163.589844,4167.692383,4146.666504,4165.641113,4156.410156,0,2043,2045,0,0,0,1190,955,2,3,4,4,3,3,1,3,4,4,3,4,4,4,4,4
39,0,4265.410156,4265.410156,4261.307617,4280.281738,4263.871582,4258.743652,4257.205078,4273.102539,4277.205078,4275.666504,4278.743652,4253.102539,4274.12793,4264.384277,0,2042,2046,0,0,0,1190,963,2,3,4,4,3,3,1,3,4,4,3,4,4,4,4,4
40,0,4189.461426,4187.410156,4184.333008,4199.205078,4186.897461,4181.256348,4184.333008,4200.230469,4207.410156,4204.333008,4210.487305,4183.820313,4201.256348,4192.025391,0,2044,2046,0,0,0,1190,970,2,3,4,4,3,3,1,3,4,4,3,4,4,4,4,4
41,0,4099.487305,4097.94873,4096.922852,4094.871582,4097.436035,4093.846191,4093.333008,4107.692383,4113.846191,4110.256348,4117.436035,4091.281738,4108.205078,4101.025391,0,2042,2046,0,0,0,1190,977,2,3,4,4,3,3,1,3,4,4,3,4,4,4,4,4
42,0,4120.974121,4122,4119.436035,4115.333008,4121.487305,4116.871582,4118.922852,4125.589844,4130.205078,4127.12793,4131.743652,4104.05127,4126.615234,4116.871582,0,2043,2045,0,0,0,1190,985,2,3,4,4,3,3,1,3,4,4,3,4,4,4,4,4
43,0,4160.563965,4159.025391,4153.897461,4162.102539,4156.974121,4150.820313,4156.461426,4164.153809,4174.410156,4170.307617,4175.94873,4151.846191,4170.307617,4159.538574,0,2043,2043,0,0,0,1190,992,2,3,4,4,3,3,1,3,4,4,3,4,4,4,4,4
44,0,4156.410156,4161.025391,4154.871582,4161.025391,4156.410156,4153.333008,4154.358887,4166.153809,4169.230469,4166.666504,4172.820313,4147.692383,4168.205078,4158.974121,0,2044,2041,0,0,0,1190,1000,2,3,4,4,3,3,1,3,4,4,3,4,4,4,4,4
45,0,4187.974121,4192.07666,4189.512695,4180.794922,4186.436035,4185.922852,4182.846191,4193.102539,4190.538574,4189,4195.666504,4175.153809,4191.05127,4189,0,2043,2040,0,0,0,1191,7,2,3,4,4,3,3,1,3,4,4,3,4,4,4,4,4
46,0,4140.512695,4138.974121,4137.436035,4126.153809,4132.820313,4135.897461,4133.333008,4142.05127,4142.563965,4139.487305,4144.102539,4126.666504,4142.563965,4140,0,2043,2038,0,0,0,1191,14,2,3,4,4,3,3,1,3,4,4,3,4,4,4,4,4
47,0,4273.871582,4275.922852,4272.846191,4268.230469,4265.153809,4272.846191,4272.333008,4282.07666,4279,4276.94873,4279.512695,4261.05127,4281.563965,4271.307617,0,2042,2040,0,0,0,1191,22,2,3,4,4,3,3,1,3,4,4,3,4,4,4,4,4
48,0,4081.94873,4082.974121,4079.384277,4085.025391,4066.05127,4074.769043,4076.820313,4086.563965,4081.94873,4082.461426,4085.538574,4069.12793,4088.102539,4076.307617,0,2042,2040,0,0,0,1191,29,2,3,4,4,3,3,1,3,4,4,3,4,4,4,4,4
49,0,4147.333008,4152.461426,4145.281738,4161.692383,4140.153809,4143.230469,4146.307617,4151.436035,4144.769043,4145.281738,4145.794922,4126.820313,4151.94873,4142.205078,0,2043,2042,0,0,0,1191,36,2,3,4,4,3,3,1,3,4,4,3,4,4,4,4,4
50,0,4125.281738,4133.487305,4129.384277,4137.589844,4129.384277,4126.307617,4123.743652,4136.563965,4130.410156,4128.358887,4132.461426,4116.05127,4136.05127,4128.871582,0,2043,2043,0,0,0,1191,44,2,3,4,4,3,3,1,3,4,4,3,4,4,4,4,4
51,0,4203.307617,4209.461426,4205.871582,4203.820313,4206.897461,4202.281738,4198.692383,4219.205078,4216.641113,4215.102539,4220.743652,4201.256348,4219.205078,4213.05127,0,2043,2043,0,0,0,1191,51,2,3,4,4,3,3,1,3,4,4,3,4,4,4,4,4
52,0,4249.717773,4257.410156,4252.281738,4250.230469,4255.358887,4252.281738,4254.333008,4264.07666,4259.974121,4259.974121,4264.07666,4239.461426,4263.05127,4256.897461,0,2044,2044,0,0,0,1191,58,2,3,4,4,3,3,1,3,4,4,3,4,4,4,4,4
53,0,4170.358887,4174.974121,4171.897461,4162.153809,4172.410156,4168.820313,4173.436035,4175.487305,4173.436035,4169.333008,4178.05127,4162.153809,4177.025391,4171.897461,0,2044,2045,0,0,0,1191,66,2,3,4,4,3,3,1,3,4,4,3,4,4,4,4,4
54,0,4208.794922,4218.025391,4211.871582,4194.436035,4215.974121,4208.794922,4212.384277,4216.487305,4212.897461,4206.743652,4213.410156,4197,4216.487305,4207.256348,0,2044,2045,0,0,0,1191,73,2,3,4,4,3,3,1,3,4,4,3,4,4,4,4,4
55,0,4247.820313,4258.07666,4253.461426,4236.538574,4251.922852,4249.871582,4249.871582,4259.102539,4256.025391,4255,4259.102539,4238.589844,4258.07666,4250.897461,0,2044,2044,0,0,0,1191,81,2,3,4,4,3,3,1,3,4,4,3,4,4,4,4,4
56,0,4214.384277,4220.025391,4222.07666,4207.205078,4204.641113,4215.410156,4214.384277,4224.641113,4226.179199,4225.153809,4232.846191,4210.794922,4226.692383,4222.07666,0,2044,2045,0,0,0,1191,90,2,3,4,4,3,3,1,3,4,4,3,4,4,4,4,4
57,0,4144.307617,4150.461426,4152.512695,4139.692383,4137.12793,4148.410156,4145.846191,4155.589844,4159.179199,4152,4159.179199,4135.07666,4155.589844,4147.384277,0,2045,2046,0,0,0,1191,98,2,3,4,4,3,3,1,3,4,4,3,4,4,4,4,4
58,0,4199.358887,4204.487305,4203.461426,4189.102539,4199.871582,4199.358887,4196.794922,4210.12793,4215.769043,4208.589844,4216.794922,4197.820313,4210.641113,4205,0,2044,2046,0,0,0,1191,106,2,3,4,4,3,3,1,3,4,4,3,4,4,4,4,4
59,0,4184.641113,4195.922852,4191.820313,4182.589844,4191.820313,4189.256348,4190.794922,4202.07666,4198.487305,4197.461426,4204.641113,4184.641113,4202.07666,4193.871582,0,2045,2046,0,0,0,1191,115,2,3,4,4,3,3,1,3,4,4,3,4,4,4,4,4
60,0,4144.205078,4156.512695,4152.922852,4148.820313,4149.846191,4151.384277,4149.846191,4161.641113,4156.512695,4154.974121,4163.179199,4140.615234,4159.589844,4151.897461,0,2044,2043,0,0,0,1191,123,2,3,4,4,3,3,1,3,4,4,3,4,4,4,4,4
61,0,4255.05127,4260.179199,4256.589844,4248.897461,4255.05127,4255.563965,4248.897461,4264.794922,4273,4268.384277,4275.563965,4251.461426,4264.794922,4262.743652,0,2045,2044,0,0,0,1191,131,2,3,4,4,3,3,1,3,4,4,3,4,4,4,4,4
62,0,4246.94873,4256.179199,4251.563965,4244.384277,4250.538574,4250.025391,4246.436035,4261.307617,4271.563965,4265.410156,4272.07666,4241.307617,4258.743652,4256.692383,0,2044,2042,0,0,0,1191,140,2,3,4,4,3,3,1,3,4,4,3,4,4,4,4,4
63,0,4220.846191,4230.07666,4228.538574,4229.563965,4225.974121,4223.410156,4221.871582,4239.820313,4253.666504,4245.461426,4255.717773,4227.512695,4239.820313,4237.256348,0,2044,2043,0,0,0,1191,148,2,3,4,4,3,3,1,3,4,4,3,4,4,4,4,4
64,0,4089.743652,4098.974121,4096.410156,4103.07666,4099.487305,4094.871582,4092.820313,4111.281738,4124.102539,4119.487305,4126.153809,4095.897461,4111.794922,4107.179199,271,2043,2044,0,0,0,1191,157,2,3,4,4,3,3,1,3,4,4,3,4,4,4,4,4
65,0,4074.256348,4084.512695,4080.410156,4084.512695,4082.974121,4080.922852,4079.897461,4089.641113,4093.743652,4092.717773,4098.358887,4067.07666,4089.641113,4083.487305,315,2043,2045,0,0,0,1191,165,2,3,4,4,3,3,1,3,4,4,3,4,4,4,4,4
66,0,4108.307617,4119.07666,4114.974121,4116.512695,4109.846191,4111.897461,4112.410156,4118.05127,4119.589844,4115.487305,4122.666504,4103.179199,4120.102539,4115.487305,404,2043,2045,0,0,0,1191,173,2,3,4,4,3,3,1,3,4,4,3,4,4,4,4,4
67,0,4074.153809,4092.102539,4084.410156,4091.589844,4084.410156,4084.410156,4082.358887,4089.025391,4091.07666,4084.410156,4091.07666,4072.102539,4088,4084.922852,436,2044,2046,0,0,0,1191,182,2,3,4,4,3,3,1,3,4,4,3,4,4,4,4,4
68,0,4222.436035,4232.692383,4226.538574,4233.205078,4228.07666,4225.512695,4219.358887,4231.153809,4235.769043,4232.179199,4241.410156,4217.820313,4232.179199,4232.692383,345,2043,2048,0,0,0,1191,190,2,3,4,4,3,3,1,3,4,4,3,4,4,4,4,4
69,0,4273.666504,4278.281738,4271.102539,4275.717773,4271.102539,4269.05127,4263.922852,4277.256348,4284.436035,4280.846191,4290.589844,4258.794922,4278.281738,4279.820313,391,2045,2049,0,0,0,1191,198,2,3,4,4,3,3,1,3,4,4,3,4,4,4,4,4
70,0,4212.589844,4221.307617,4212.07666,4216.692383,4212.589844,4212.07666,4209,4219.769043,4229.512695,4221.307617,4231.05127,4200.281738,4217.717773,4218.743652,98,2044,2048,0,0,0,1191,207,2,3,4,4,3,3,1,3,4,4,3,4,4,4,4,4
71,0,4089.897461,4102.717773,4095.538574,4098.615234,4094.512695,4095.025391,4088.871582,4101.692383,4108.871582,4102.205078,4111.94873,4091.94873,4103.743652,4101.692383,341,2044,2044,0,0,0,1191,215,2,3,4,4,3,3,1,3,4,4,3,4,4,4,4,4
72,0,4235.666504,4254.641113,4247.461426,4249.512695,4249,4246.94873,4242.846191,4250.538574,4247.974121,4245.410156,4252.07666,4227.974121,4252.07666,4244.897461,885,2044,2042,0,0,0,1191,223,2,3,4,4,3,3,1,3,4,4,3,4,4,4,4,4
73,0,4078.307617,4090.615234,4087.025391,4088.563965,4090.615234,4082.922852,4081.384277,4090.615234,4089.589844,4086,4093.179199,4067.538574,4089.589844,4086,852,2043,2040,0,0,0,1191,232,2,3,4,4,3,3,1,3,4,4,3,4,4,4,4,4
74,0,4103.794922,4112,4108.922852,4116.102539,4115.589844,4106.871582,4103.794922,4120.717773,4121.743652,4119.179199,4124.307617,4099.692383,4115.07666,4119.179199,299,2043,2038,0,0,0,1191,239,2,3,4,4,3,3,1,3,4,4,3,4,4,4,4,4
75,0,4116.153809,4128.461426,4123.333008,4131.538574,4129.487305,4128.461426,4123.333008,4136.153809,4131.025391,4130.512695,4136.153809,4111.538574,4129.487305,4135.12793,582,2043,2038,0,0,0,1191,246,2,3,4,4,3,3,1,3,4,4,3,4,4,4,4,4
76,0,4169.230469,4180,4177.94873,4175.897461,4170.256348,4180,4177.94873,4180.512695,4172.820313,4171.794922,4180.512695,4161.025391,4182.05127,4181.025391,930,2041,2039,0,0,0,1191,254,2,3,4,4,3,3,1,3,4,4,3,4,4,4,4,4
77,0,4163.07666,4177.94873,4174.358887,4174.871582,4167.692383,4175.384277,4176.922852,4173.846191,4160.512695,4160,4163.07666,4146.666504,4176.922852,4168.717773,472,2042,2040,0,0,0,1191,261,2,3,4,4,3,3,1,3,4,4,3,4,4,4,4,4
78,0,4087.179199,4099.487305,4095.897461,4096.922852,4100,4094.871582,4095.384277,4098.974121,4088.717773,4086.153809,4090.769043,4078.974121,4100,4096.922852,299,2042,2044,0,0,0,1191,268,2,3,4,4,3,3,1,3,4,4,3,4,4,4,4,4
79,0,4082.410156,4088.563965,4085.487305,4079.333008,4093.179199,4083.436035,4082.410156,4091.641113,4089.07666,4084.461426,4093.179199,4075.230469,4090.615234,4092.153809,582,2043,2045,0,0,0,1191,276,2,3,4,4,3,3,1,3,4,4,3,4,4,4,4,4
80,0,4087.897461,4099.692383,4093.025391,4088.410156,4099.179199,4093.025391,4089.94873,4096.102539,4094.563965,4091.487305,4099.692383,4073.025391,4093.538574,4097.641113,930,2044,2047,0,0,0,1191,283,2,3,4,4,3,3,1,3,4,4,3,4,4,4,4,4
81,0,4171.384277,4185.230469,4177.025391,4171.897461,4180.615234,4178.05127,4173.436035,4180.615234,4183.179199,4181.641113,4189.846191,4165.743652,4180.615234,4191.384277,472,2044,2047,0,0,0,1191,290,2,3,4,4,3,3,1,3,4,4,3,4,4,4,4,4
82,0,4115.743652,4129.07666,4123.436035,4112.153809,4128.563965,4127.025391,4123.436035,4133.179199,4134.717773,4134.205078,4142.922852,4113.179199,4132.153809,4139.846191,299,2043,2047,0,0,0,1191,298,2,3,4,4,3,3,1,3,4,4,3,4,4,4,4,4
83,0,4198.846191,4211.153809,4209.102539,4191.153809,4210.12793,4206.538574,4201.410156,4213.717773,4219.871582,4218.333008,4230.12793,4196.794922,4214.743652,4221.410156,582,2044,2045,0,0,0,1191,305,2,3,4,4,3,3,1,3,4,4,3,4,4,4,4,4
84,0,4134.410156,4147.230469,4141.589844,4129.281738,4143.641113,4137.487305,4133.384277,4143.641113,4151.846191,4147.230469,4156.461426,4128.256348,4143.12793,4151.846191,930,2043,2043,0,0,0,1191,313,2,3,4,4,3,3,1,3,4,4,3,4,4,4,4,4
85,0,4157.743652,4174.153809,4164.922852,4162.871582,4174.666504,4166.974121,4164.922852,4171.07666,4169.538574,4167.487305,4171.07666,4148,4164.922852,4169.025391,472,2044,2042,0,0,0,1191,320,2,3,4,4,3,3,1,3,4,4,3,4,4,4,4,4
86,0,4175.256348,4188.589844,4184.487305,4181.922852,4188.589844,4185,4180.384277,4189.615234,4189.615234,4187.05127,4195.256348,4174.743652,4187.563965,4192.179199,299,2044,2041,0,0,0,1191,327,2,3,4,4,3,3,1,3,4,4,3,4,4,4,4,4
87,0,4249.615234,4265.512695,4263.461426,4258.846191,4262.94873,4263.974121,4261.410156,4266.025391,4267.05127,4259.871582,4268.589844,4241.410156,4262.94873,4268.07666,582,2044,2040,0,0,0,1191,335,2,3,4,4,3,3,1,3,4,4,3,4,4,4,4,4
88,0,4117.589844,4134.512695,4133.487305,4131.94873,4135.538574,4131.94873,4126.820313,4134.512695,4130.922852,4128.358887,4135.025391,4109.384277,4129.897461,4135.025391,930,2044,2040,0,0,0,1191,342,2,3,4,4,3,3,1,3,4,4,3,4,4,4,4,4
89,0,4130.666504,4146.563965,4144.512695,4148.102539,4146.05127,4140.410156,4125.538574,4148.102539,4151.179199,4150.153809,4154.769043,4133.743652,4146.563965,4152.717773,472,2044,2042,0,0,0,1191,350,2,3,4,4,3,3,1,3,4,4,3,4,4,4,4,4
90,0,4129.179199,4146.615234,4142,4146.102539,4144.563965,4140.461426,4124.05127,4152.256348,4158.410156,4153.794922,4158.922852,4130.205078,4145.07666,4153.281738,299,2046,2042,0,0,0,1191,359,2,3,4,4,3,3,1,3,4,4,3,4,4,4,4,4
91,0,4187.358887,4196.07666,4195.563965,4197.615234,4196.07666,4195.05127,4179.153809,4206.846191,4210.436035,4206.846191,4214.025391,4187.358887,4199.666504,4209.410156,582,2045,2046,0,0,0,1191,367,2,3,4,4,3,3,1,3,4,4,3,4,4,4,4,4
92,0,4234.230469,4245.512695,4244.487305,4248.589844,4246.538574,4244.487305,4226.538574,4250.12793,4249.615234,4247.563965,4251.666504,4227.05127,4247.05127,4251.666504,930,2045,2045,0,0,0,1191,375,2,3,4,4,3,3,1,3,4,4,3,4,4,4,4,4
93,0,4220.230469,4237.153809,4231,4234.07666,4237.153809,4229.974121,4211.512695,4235.102539,4239.717773,4233.563965,4238.692383,4212.025391,4232.538574,4238.692383,472,2043,2045,0,0,0,1191,384,2,3,4,4,3,3,1,3,4,4,3,4,4,4,4,4
94,0,4175.384277,4191.281738,4183.589844,4183.589844,4186.666504,4184.615234,4162.05127,4191.794922,4202.05127,4196.922852,4204.615234,4174.871582,4188.205078,4201.025391,299,2042,2045,0,0,0,1191,392,2,3,4,4,3,3,1,3,4,4,3,4,4,4,4,4
95,0,4159.230469,4181.281738,4174.102539,4174.615234,4175.12793,4177.179199,4152.563965,4182.820313,4188.974121,4185.897461,4192.05127,4157.692383,4175.641113,4188.974121,582,2042,2048,0,0,0,1191,400,2,3,4,4,3,3,1,3,4,4,3,4,4,4,4,4
96,0,4184.333008,4202.281738,4198.179199,4197.666504,4198.179199,4194.589844,4175.615234,4200.743652,4211.512695,4207.922852,4214.07666,4184.846191,4198.692383,4212.025391,930,2042,2048,0,0,0,1191,409,2,3,4,4,3,3,1,3,4,4,3,4,4,4,4,4
97,0,4251.922852,4265.769043,4258.07666,4266.281738,4264.230469,4255.512695,4242.692383,4265.256348,4278.589844,4278.07666,4282.179199,4249.871582,4261.153809,4276.538574,472,2041,2047,0,0,0,1191,417,2,3,4,4,3,3,1,3,4,4,3,4,4,4,4,4
98,0,4252.846191,4265.666504,4262.07666,4275.410156,4265.153809,4260.538574,4247.717773,4273.358887,4282.07666,4282.589844,4289.256348,4251.820313,4264.641113,4283.102539,299,2042,2046,0,0,0,1191,425,2,3,4,4,3,3,1,3,4,4,3,4,4,4,4,4
99,0,4252.230469,4265.563965,4265.563965,4273.256348,4261.974121,4263.512695,4247.102539,4276.333008,4287.102539,4282.487305,4292.230469,4257.871582,4274.281738,4290.179199,582,2041,2044,0,0,0,1191,434,2,3,4,4,3,3,1,3,4,4,3,4,4,4,4,4
100,0,4143.641113,4163.12793,4156.461426,4164.153809,4158,4158.512695,4141.07666,4169.281738,4178.512695,4174.922852,4180.05127,4143.12793,4164.666504,4175.94873,930,2043,2044,0,0,0,1191,442,2,3,4,4,3,3,1,3,4,4,3,4,4,4,4,4
101,0,4241.820313,4256.179199,4251.563965,4257.205078,4250.538574,4249,4233.615234,4262.333008,4276.179199,4273.615234,4280.281738,4243.871582,4257.205078,4270.538574,472,2043,2043,0,0,0,1191,450,2,3,4,4,3,3,1,3,4,4,3,4,4,4,4,4
102,0,4146.769043,4159.07666,4155.487305,4164.205078,4154.974121,4154.461426,4140.615234,4169.333008,4184.717773,4179.589844,4187.281738,4147.794922,4167.281738,4180.615234,299,2045,2042,0,0,0,1191,459,2,3,4,4,3,3,1,3,4,4,3,4,4,4,4,4
103,0,4115.281738,4130.666504,4124,4136.820313,4127.07666,4127.07666,4106.563965,4138.871582,4149.12793,4144,4152.717773,4111.692383,4132.717773,4149.12793,582,2044,2040,0,0,0,1191,466,2,3,4,4,3,3,1,3,4,4,3,4,4,4,4,4
104,0,4100.461426,4112.769043,4105.589844,4115.333008,4105.589844,4105.589844,4085.589844,4116.871582,4128.666504,4127.641113,4134.307617,4101.487305,4110.717773,4128.153809,930,2046,2042,0,0,0,1191,473,2,3,4,4,3,3,1,3,4,4,3,4,4,4,4,4
105,0,4082.820313,4095.641113,4088.974121,4102.307617,4093.589844,4091.025391,4077.179199,4100.256348,4110.512695,4110.512695,4112.05127,4078.717773,4097.179199,4107.94873,472,2045,2043,0,0,0,1191,481,2,3,4,4,3,3,1,3,4,4,3,4,4,4,4,4
106,0,4158.871582,4170.153809,4167.07666,4178.871582,4166.05127,4167.589844,4150.666504,4177.333008,4186.05127,4183.487305,4189.641113,4155.794922,4175.794922,4189.12793,299,2045,2045,0,0,0,1191,488,2,3,4,4,3,3,1,3,4,4,3,4,4,4,4,4
107,0,4078.769043,4095.179199,4092.102539,4100.307617,4074.153809,4091.589844,4077.743652,4100.820313,4104.922852,4099.281738,4108.512695,4077.230469,4094.153809,4108,582,2045,2044,0,0,0,1191,496,2,3,4,4,3,3,1,3,4,4,3,4,4,4,4,4
108,0,4112.102539,4133.641113,4126.461426,4138.769043,4100.307617,4130.563965,4118.256348,4130.05127,4129.025391,4123.897461,4130.563965,4105.436035,4129.025391,4132.102539,930,2045,2045,0,0,0,1191,503,2,3,4,4,3,3,1,3,4,4,3,4,4,4,4,4
109,0,4257.307617,4270.641113,4264.487305,4276.794922,4247.05127,4267.563965,4250.641113,4268.07666,4269.102539,4267.563965,4274.230469,4249.102539,4275.256348,4274.743652,472,2045,2044,0,0,0,1191,510,2,3,4,4,3,3,1,3,4,4,3,4,4,4,4,4
110,0,4175.384277,4189.230469,4183.589844,4191.794922,4180.512695,4185.12793,4169.230469,4191.794922,4195.384277,4194.871582,4199.487305,4164.102539,4189.743652,4191.281738,299,2045,2045,0,0,0,1191,518,2,3,4,4,3,3,1,3,4,4,3,4,4,4,4,4
111,0,4218.94873,4235.871582,4227.153809,4241.512695,4224.07666,4227.153809,4213.307617,4236.897461,4246.12793,4243.563965,4248.179199,4217.922852,4230.743652,4239.974121,582,2046,2043,0,0,0,1191,525,2,3,4,4,3,3,1,3,4,4,3,4,4,4,4,4
112,0,4274.384277,4289.256348,4279,4301.05127,4275.410156,4277.461426,4265.153809,4290.794922,4296.94873,4297.461426,4302.07666,4273.871582,4290.794922,4297.461426,930,2044,2041,0,0,0,1191,532,2,3,4,4,3,3,1,3,4,4,3,4,4,4,4,4
113,0,4148.717773,4164.102539,4159.487305,4173.333008,4160,4156.922852,4143.07666,4168.717773,4168.205078,4168.717773,4175.897461,4140.512695,4168.205078,4170.256348,472,2043,2039,0,0,0,1191,541,2,3,4,4,3,3,1,3,4,4,3,4,4,4,4,4
114,0,4268.794922,4280.589844,4279.563965,4289.307617,4279.05127,4278.538574,4260.07666,4288.281738,4290.846191,4287.256348,4296.487305,4266.230469,4283.153809,4289.820313,299,2043,2038,0,0,0,1191,549,2,3,4,4,3,3,1,3,4,4,3,4,4,4,4,4
115,0,4120.256348,4132.563965,4125.897461,4143.333008,4130.512695,4128.974121,4112.05127,4138.717773,4138.205078,4136.153809,4139.743652,4111.025391,4131.538574,4137.179199,582,2044,2039,0,0,0,1191,557,2,3,4,4,3,3,1,3,4,4,3,4,4,4,4,4
116,0,4150.307617,4160.05127,4156.974121,4167.230469,4157.487305,4154.410156,4142.102539,4165.692383,4162.615234,4160.563965,4166.205078,4138.512695,4165.692383,4167.743652,930,2043,2040,0,0,0,1191,566,2,3,4,4,3,3,1,3,4,4,3,4,4,4,4,4
117,0,4190.743652,4201,4201.512695,4204.07666,4198.94873,4197.922852,4186.641113,4207.666504,4203.05127,4198.436035,4206.12793,4182.538574,4209.205078,4210.743652,472,2041,2040,0,0,0,1191,574,2,3,4,4,3,3,1,3,4,4,3,4,4,4,4,4
118,0,4124.666504,4142.102539,4139.025391,4143.641113,4140.563965,4140.563965,4121.589844,4143.641113,4142.102539,4139.538574,4143.641113,4116.461426,4141.589844,4143.641113,299,2042,2041,0,0,0,1191,582,2,3,4,4,3,3,1,3,4,4,3,4,4,4,4,4
119,0,4111.384277,4123.179199,4121.12793,4126.256348,4119.07666,4121.641113,4101.12793,4125.230469,4137.025391,4134.461426,4140.615234,4108.820313,4129.333008,4132.410156,582,2041,2043,0,0,0,1191,591,2,3,4,4,3,3,1,3,4,4,3,4,4,4,4,4
120,0,4186.794922,4199.615234,4196.538574,4202.179199,4186.281738,4196.025391,4186.281738,4204.230469,4211.410156,4208.846191,4213.461426,4180.12793,4204.743652,4205.256348,930,2041,2044,0,0,0,1191,599,2,3,4,4,3,3,1,3,4,4,3,4,4,4,4,4
121,0,4197.307617,4213.717773,4211.153809,4215.769043,4192.179199,4207.05127,4196.281738,4217.820313,4218.333008,4216.794922,4221.922852,4192.692383,4210.12793,4211.153809,472,2041,2046,0,0,0,1191,606,2,3,4,4,3,3,1,3,4,4,3,4,4,4,4,4
122,0,4254.794922,4271.205078,4269.153809,4272.230469,4250.179199,4266.07666,4248.12793,4277.871582,4285.05127,4282.487305,4290.179199,4257.358887,4273.769043,4272.230469,299,2041,2045,0,0,0,1191,614,2,3,4,4,3,3,1,3,4,4,3,4,4,4,4,4
123,0,4260.641113,4276.025391,4273.461426,4275.512695,4262.692383,4273.974121,4261.153809,4283.205078,4287.307617,4283.717773,4293.461426,4255.512695,4279.615234,4276.538574,582,2042,2045,0,0,0,1191,622,2,3,4,4,3,3,1,3,4,4,3,4,4,4,4,4
124,0,4244.846191,4251,4252.025391,4251.512695,4245.871582,4247.922852,4240.230469,4259.205078,4260.230469,4256.12793,4267.410156,4239.717773,4256.641113,4254.07666,930,2042,2043,0,0,0,1191,630,2,3,4,4,3,3,1,3,4,4,3,4,4,4,4,4
125,0,4170.871582,4179.07666,4179.589844,4178.563965,4178.563965,4173.94873,4161.641113,4186.256348,4190.358887,4186.769043,4192.922852,4163.179199,4187.281738,4177.538574,472,2043,2043,0,0,0,1191,637,2,3,4,4,3,3,1,3,4,4,3,4,4,4,4,4
126,0,4196.281738,4208.589844,4209.102539,4208.07666,4209.615234,4203.974121,4187.05127,4215.769043,4218.333008,4216.281738,4221.922852,4192.692383,4216.281738,4206.025391,299,2044,2041,0,0,0,1191,645,2,3,4,4,3,3,1,3,4,4,3,4,4,4,4,4
127,0,4086.769043,4096,4096.512695,4098.05127,4099.589844,4095.487305,4082.666504,4105.230469,4102.666504,4101.641113,4107.794922,4084.717773,4103.692383,4099.07666,582,2044,2040,0,0,0,1191,653,2,3,4,4,3,3,1,3,4,4,3,4,4,4,4,4
128,0,4240.692383,4251.974121,4249.922852,4255.05127,4255.563965,4250.436035,4243.769043,4259.666504,4253.512695,4251.974121,4256.07666,4226.333008,4257.102539,4247.358887,930,2044,2039,0,0,0,1191,660,2,3,4,4,3,3,1,3,4,4,3,4,4,4,4,4
0,0,4097.230469,4107.487305,4107.487305,4110.563965,4104.922852,4104.410156,4095.692383,4113.641113,4109.538574,4106.974121,4112.615234,4089.025391,4114.153809,4100.820313,272,2044,2038,0,0,0,1191,669,2,3,4,4,3,3,1,3,4,4,3,4,4,4,4,4
1,0,4243.205078,4257.05127,4255,4258.07666,4252.94873,4253.974121,4243.205078,4258.07666,4248.333008,4243.205078,4247.307617,4231.410156,4254.487305,4242.179199,315,2043,2040,0,0,0,1191,676,2,3,4,4,3,3,1,3,4,4,3,4,4,4,4,4
2,0,4260.281738,4275.666504,4272.07666,4276.179199,4274.12793,4271.563965,4261.307617,4270.025391,4254.641113,4251.05127,4256.179199,4241.307617,4267.461426,4257.205078,399,2044,2040,0,0,0,1191,684,2,3,4,4,3,3,1,3,4,4,3,4,4,4,4,4
3,0,4154.871582,4161.025391,4162.05127,4166.153809,4158.461426,4158.461426,4147.179199,4159.487305,4147.179199,4147.692383,4154.871582,4140,4162.563965,4152.820313,436,2044,2043,0,0,0,1191,692,2,3,4,4,3,3,1,3,4,4,3,4,4,4,4,4
4,0,4126.205078,4132.871582,4135.436035,4143.641113,4133.384277,4134.410156,4120.563965,4138.512695,4122.102539,4122.102539,4126.717773,4109.794922,4133.384277,4121.589844,345,2045,2045,0,0,0,1191,700,2,3,4,4,3,3,1,3,4,4,3,4,4,4,4,4
5,0,4123.281738,4132,4134.563965,4135.589844,4135.589844,4130.974121,4118.666504,4135.07666,4116.615234,4116.102539,4119.692383,4108.410156,4129.94873,4118.153809,391,2045,2045,0,0,0,1191,707,2,3,4,4,3,3,1,3,4,4,3,4,4,4,4,4
6,0,4117.281738,4129.589844,4128.563965,4121.384277,4131.12793,4126,4115.743652,4123.436035,4107.025391,4108.563965,4109.07666,4098.820313,4124.461426,4112.153809,98,2045,2045,0,0,0,1191,715,2,3,4,4,3,3,1,3,4,4,3,4,4,4,4,4
7,0,4153.743652,4169.12793,4165.538574,4162.974121,4170.153809,4165.538574,4153.743652,4160.922852,4149.641113,4148.615234,4153.230469,4138.871582,4161.94873,4150.666504,341,2045,2045,0,0,0,1191,723,2,3,4,4,3,3,1,3,4,4,3,4,4,4,4,4
8,0,4101.436035,4110.666504,4107.07666,4108.102539,4108.102539,4105.538574,4091.179199,4108.615234,4102.974121,4098.871582,4110.153809,4092.205078,4109.12793,4101.436035,882,2044,2046,0,0,0,1191,731,2,3,4,4,3,3,1,3,4,4,3,4,4,4,4,4
9,0,4174.358887,4184.615234,4181.025391,4180,4180.512695,4180,4169.743652,4185.12793,4173.333008,4173.333008,4179.487305,4158.974121,4182.05127,4171.794922,851,2044,2046,0,0,0,1191,739,2,3,4,4,3,3,1,3,4,4,3,4,4,4,4,4
10,0,4137.846191,4150.666504,4150.153809,4141.94873,4146.563965,4145.025391,4138.358887,4147.589844,4136.307617,4136.307617,4140.410156,4125.025391,4148.102539,4134.769043,300,2044,2046,0,0,0,1191,748,2,3,4,4,3,3,1,3,4,4,3,4,4,4,4,4
11,0,4243.820313,4256.641113,4255.102539,4254.07666,4254.07666,4253.05127,4245.358887,4252.025391,4244.846191,4240.230469,4245.871582,4228.436035,4255.102539,4239.717773,579,2044,2046,0,0,0,1191,756,2,3,4,4,3,3,1,3,4,4,3,4,4,4,4,4
12,0,4078.820313,4089.589844,4087.025391,4092.666504,4089.07666,4088.563965,4079.333008,4083.94873,4074.717773,4070.615234,4075.230469,4057.794922,4085.487305,4072.666504,931,2044,2044,0,0,0,1191,763,2,3,4,4,3,3,1,3,4,4,3,4,4,4,4,4
13,0,4133.436035,4141.641113,4141.12793,4134.461426,4136.512695,4136.512695,4126.769043,4137.025391,4127.281738,4125.230469,4130.358887,4116,4137.538574,4130.358887,471,2045,2043,0,0,0,1191,771,2,3,4,4,3,3,1,3,4,4,3,4,4,4,4,4
14,0,4158.256348,4173.641113,4173.12793,4162.871582,4166.461426,4166.974121,4158.769043,4173.641113,4159.281738,4157.230469,4162.871582,4141.333008,4168,4159.794922,300,2045,2040,0,0,0,1191,779,2,3,4,4,3,3,1,3,4,4,3,4,4,4,4,4
15,0,4236.743652,4248.538574,4251.615234,4244.94873,4245.461426,4245.461426,4240.333008,4251.102539,4237.256348,4236.230469,4242.384277,4227,4248.538574,4238.794922,579,2044,2042,0,0,0,1191,787,2,3,4,4,3,3,1,3,4,4,3,4,4,4,4,4
16,0,4203.717773,4212.94873,4212.94873,4210.384277,4207.307617,4209.871582,4205.256348,4210.897461,4196.025391,4195,4199.615234,4189.871582,4211.922852,4201.153809,0,2044,2041,0,0,0,1191,795,2,3,4,4,3,3,1,3,4,4,3,4,4,4,4,4
17,0,4124.717773,4137.538574,4134.461426,4134.974121,4123.692383,4131.897461,4127.281738,4133.436035,4116.512695,4112.410156,4119.589844,4102.153809,4130.358887,4120.615234,0,2043,2040,0,0,0,1191,803,2,3,4,4,3,3,1,3,4,4,3,4,4,4,4,4
18,0,4100.358887,4108.05127,4108.563965,4113.179199,4087.538574,4104.461426,4102.922852,4109.589844,4098.307617,4094.717773,4104.461426,4088.563965,4110.102539,4101.897461,0,2043,2042,0,0,0,1191,811,2,3,4,4,3,3,1,3,4,4,3,4,4,4,4,4
19,0,4141.589844,4155.94873,4154.922852,4162.102539,4135.94873,4154.410156,4154.922852,4154.922852,4139.025391,4139.025391,4143.12793,4129.794922,4155.94873,4145.179199,0,2043,2043,0,0,0,1191,819,2,3,4,4,3,3,1,3,4,4,3,4,4,4,4,4
20,0,4084.563965,4102.512695,4100.974121,4108.153809,4087.641113,4098.922852,4091.230469,4097.897461,4081.487305,4080.974121,4084.05127,4073.281738,4098.922852,4089.179199,0,2043,2042,0,0,0,1191,827,2,3,4,4,3,3,1,3,4,4,3,4,4,4,4,4
21,0,4127.641113,4142,4142.512695,4152.769043,4137.897461,4140.974121,4129.179199,4145.589844,4135.333008,4132.769043,4137.384277,4122.512695,4144.05127,4135.333008,0,2043,2043,0,0,0,1191,835,2,3,4,4,3,3,1,3,4,4,3,4,4,4,4,4
22,0,4181.05127,4196.436035,4195.922852,4204.12793,4198.487305,4198.487305,4187.717773,4201.563965,4191.307617,4190.281738,4193.871582,4173.871582,4195.922852,4189.256348,0,2044,2042,0,0,0,1191,842,2,3,4,4,3,3,1,3,4,4,3,4,4,4,4,4
23,0,4100.717773,4114.563965,4111.487305,4113.538574,4108.410156,4109.436035,4099.179199,4114.563965,4106.871582,4107.384277,4111.487305,4093.025391,4113.538574,4107.897461,0,2044,2040,0,0,0,1191,850,2,3,4,4,3,3,1,3,4,4,3,4,4,4,4,4
24,0,4152.307617,4167.179199,4161.538574,4165.12793,4158.461426,4158.461426,4150.256348,4166.153809,4160,4156.410156,4163.07666,4136.410156,4163.07666,4155.384277,0,2043,2041,0,0,0,1191,858,2,3,4,4,3,3,1,3,4,4,3,4,4,4,4,4
25,0,4210.846191,4219.05127,4219.563965,4221.615234,4218.025391,4217,4209.820313,4224.692383,4215.974121,4209.820313,4219.05127,4195.974121,4218.025391,4216.487305,0,2043,2041,0,0,0,1191,865,2,3,4,4,3,3,1,3,4,4,3,4,4,4,4,4
26,0,4158.820313,4166,4165.487305,4163.436035,4161.384277,4160.871582,4150.615234,4169.589844,4159.846191,4155.230469,4161.897461,4144.461426,4167.025391,4166.512695,0,2043,2042,0,0,0,1191,873,2,3,4,4,3,3,1,3,4,4,3,4,4,4,4,4
27,0,4109.846191,4127.281738,4115.487305,4120.102539,4116.512695,4114.974121,4099.589844,4118.563965,4114.974121,4110.358887,4119.07666,4090.871582,4118.563965,4114.461426,0,2042,2044,0,0,0,1191,881,2,3,4,4,3,3,1,3,4,4,3,4,4,4,4,4
28,0,4169.07666,4180.871582,4171.641113,4177.794922,4175.230469,4174.717773,4158.820313,4175.230469,4176.256348,4175.230469,4186.512695,4158.820313,4175.230469,4176.256348,0,2041,2044,0,0,0,1191,889,2,3,4,4,3,3,1,3,4,4,3,4,4,4,4,4
29,0,4238.436035,4247.666504,4242.538574,4245.615234,4246.641113,4247.666504,4236.897461,4247.153809,4241,4242.538574,4245.102539,4222.538574,4242.538574,4244.07666,0,2041,2044,0,0,0,1191,897,2,3,4,4,3,3,1,3,4,4,3,4,4,4,4,4
30,0,4176.922852,4185.12793,4177.436035,4182.05127,4180,4181.025391,4170.769043,4182.563965,4175.897461,4170.769043,4174.358887,4153.846191,4179.487305,4176.922852,0,2043,2046,0,0,0,1191,905,2,3,4,4,3,3,1,3,4,4,3,4,4,4,4,4
31,0,4211.563965,4211.563965,4204.897461,4212.07666,4207.974121,4207.974121,4197.717773,4213.615234,4211.563965,4202.846191,4210.538574,4191.563965,4214.12793,4212.589844,0,2043,2046,0,0,0,1191,912,2,3,4,4,3,3,1,3,4,4,3,4,4,4,4,4
32,0,4273.358887,4275.410156,4274.897461,4282.07666,4275.922852,4275.922852,4267.717773,4279.512695,4272.333008,4266.179199,4271.820313,4251.307617,4277.974121,4276.436035,0,2043,2044,0,0,0,1191,919,2,3,4,4,3,3,1,3,4,4,3,4,4,4,4,4
33,0,4185.871582,4187.922852,4191,4193.05127,4185.358887,4186.897461,4177.153809,4191,4178.692383,4171.512695,4181.256348,4166.897461,4188.94873,4184.846191,0,2043,2044,0,0,0,1191,927,2,3,4,4,3,3,1,3,4,4,3,4,4,4,4,4
34,0,4160.974121,4162,4158.922852,4160.461426,4161.487305,4159.436035,4150.717773,4166.102539,4150.205078,4145.07666,4153.281738,4138.410156,4160.461426,4156.871582,0,2042,2044,0,0,0,1191,936,2,3,4,4,3,3,1,3,4,4,3,4,4,4,4,4
35,0,4149.589844,4148.563965,4143.94873,4143.436035,4149.589844,4145.487305,4138.307617,4150.102539,4136.769043,4135.743652,4140.358887,4122.922852,4146,4147.538574,0,2042,2042,0,0,0,1191,944,2,3,4,4,3,3,1,3,4,4,3,4,4,4,4,4
36,0,4255.05127,4251.974121,4250.94873,4250.436035,4248.384277,4247.358887,4239.153809,4250.436035,4239.666504,4239.153809,4242.743652,4228.384277,4250.94873,4251.974121,0,2041,2043,0,0,0,1191,952,2,3,4,4,3,3,1,3,4,4,3,4,4,4,4,4
37,0,4105.897461,4105.384277,4104.871582,4104.871582,4103.846191,4103.333008,4094.615234,4106.410156,4087.94873,4088.461426,4091.025391,4074.615234,4101.281738,4100.769043,0,2041,2043,0,0,0,1191,961,2,3,4,4,3,3,1,3,4,4,3,4,4,4,4,4
38,0,4188.12793,4181.974121,4181.974121,4173.256348,4181.461426,4179.410156,4173.256348,4186.589844,4172.743652,4173.769043,4179.922852,4161.974121,4181.974121,4186.589844,0,2042,2043,0,0,0,1191,969,2,3,4,4,3,3,1,3,4,4,3,4,4,4,4,4
39,0,4279.615234,4275.512695,4273.461426,4264.743652,4271.922852,4269.358887,4268.846191,4277.05127,4269.358887,4268.333008,4275,4251.922852,4274.487305,4278.07666,0,2042,2042,0,0,0,1191,977,2,3,4,4,3,3,1,3,4,4,3,4,4,4,4,4
40,0,4151.589844,4148,4148.512695,4145.94873,4144.922852,4142.871582,4137.743652,4149.538574,4137.230469,4135.692383,4144.410156,4122.871582,4144.410156,4147.487305,0,2042,2042,0,0,0,1191,986,2,3,4,4,3,3,1,3,4,4,3,4,4,4,4,4
41,0,4092.717773,4082.461426,4085.025391,4082.461426,4080.410156,4079.897461,4068.615234,4087.589844,4073.230469,4071.692383,4081.94873,4068.102539,4084,4088.102539,0,2042,2042,0,0,0,1191,993,2,3,4,4,3,3,1,3,4,4,3,4,4,4,4,4
42,0,4159.07666,4152.922852,4152.410156,4150.871582,4153.94873,4150.871582,4141.12793,4156,4140.615234,4138.05127,4145.743652,4127.281738,4153.94873,4152.922852,0,2043,2043,0,0,0,1192,0,2,3,4,4,3,3,1,3,4,4,3,4,4,4,4,4
43,0,4239.717773,4233.563965,4233.05127,4233.05127,4234.07666,4228.436035,4218.692383,4234.07666,4224.333008,4220.743652,4227.922852,4209.461426,4234.07666,4239.205078,0,2043,2042,0,0,0,1192,8,2,3,4,4,3,3,1,3,4,4,3,4,4,4,4,4
44,0,4277.307617,4268.07666,4267.563965,4267.05127,4265,4265.512695,4253.205078,4271.666504,4261.410156,4257.307617,4263.974121,4246.025391,4267.05127,4276.794922,0,2044,2043,0,0,0,1192,15,2,3,4,4,3,3,1,3,4,4,3,4,4,4,4,4
45,0,4156.769043,4148.05127,4147.538574,4141.897461,4148.05127,4149.589844,4140.358887,4149.07666,4139.333008,4136.256348,4145.487305,4125.487305,4146.512695,4154.205078,0,2043,2042,0,0,0,1192,22,2,3,4,4,3,3,1,3,4,4,3,4,4,4,4,4
46,0,4209.871582,4201.666504,4201.666504,4189.871582,4202.179199,4199.615234,4193.974121,4197.563965,4197.563965,4197.05127,4206.281738,4186.794922,4202.692383,4216.538574,0,2043,2042,0,0,0,1192,30,2,3,4,4,3,3,1,3,4,4,3,4,4,4,4,4
47,0,4242.794922,4238.179199,4235.615234,4225.358887,4236.12793,4234.07666,4226.897461,4234.07666,4232.025391,4231.512695,4235.615234,4211.512695,4232.025391,4251,0,2044,2042,0,0,0,1192,39,2,3,4,4,3,3,1,3,4,4,3,4,4,4,4,4
48,0,4242.333008,4234.12793,4231.563965,4222.333008,4233.102539,4229.512695,4221.820313,4232.589844,4226.94873,4224.384277,4231.563965,4212.07666,4228.487305,4246.436035,0,2043,2041,0,0,0,1192,47,2,3,4,4,3,3,1,3,4,4,3,4,4,4,4,4
49,0,4205.820313,4194.538574,4194.025391,4182.743652,4197.615234,4191.974121,4184.281738,4197.615234,4195.05127,4189.410156,4201.205078,4179.153809,4197.102539,4211.974121,0,2044,2041,0,0,0,1192,55,2,3,4,4,3,3,1,3,4,4,3,4,4,4,4,4
50,0,4105.794922,4098.102539,4096.05127,4084.256348,4098.102539,4096.05127,4081.692383,4104.769043,4103.743652,4097.07666,4108.358887,4076.563965,4099.12793,4116.563965,0,2043,2043,0,0,0,1192,63,2,3,4,4,3,3,1,3,4,4,3,4,4,4,4,4
51,0,4140.922852,4131.692383,4126.563965,4118.871582,4124.512695,4126.05127,4106.563965,4137.846191,4138.871582,4133.743652,4143.487305,4115.794922,4133.230469,4152.717773,0,2044,2042,0,0,0,1192,70,2,3,4,4,3,3,1,3,4,4,3,4,4,4,4,4
52,0,4223.307617,4216.12793,4209.974121,4211,4208.94873,4210.487305,4196.12793,4218.179199,4216.641113,4210.487305,4220.230469,4194.07666,4215.102539,4230.487305,0,2044,2044,0,0,0,1192,78,2,3,4,4,3,3,1,3,4,4,3,4,4,4,4,4
53,0,4267.410156,4257.153809,4256.641113,4255.615234,4247.922852,4253.563965,4240.230469,4260.230469,4262.794922,4255.615234,4267.922852,4241.769043,4256.12793,4275.102539,0,2045,2045,0,0,0,1192,86,2,3,4,4,3,3,1,3,4,4,3,4,4,4,4,4
54,0,4280.538574,4267.717773,4265.153809,4268.230469,4249.256348,4266.692383,4244.641113,4272.333008,4280.025391,4274.897461,4284.12793,4257.974121,4269.769043,4287.205078,0,2044,2044,0,0,0,1192,95,2,3,4,4,3,3,1,3,4,4,3,4,4,4,4,4
55,0,4206.436035,4198.743652,4190.538574,4204.384277,4174.12793,4196.692383,4173.102539,4198.230469,4202.333008,4199.769043,4203.871582,4179.256348,4196.692383,4209.512695,0,2045,2044,0,0,0,1192,102,2,3,4,4,3,3,1,3,4,4,3,4,4,4,4,4
56,0,4116.461426,4105.692383,4100.563965,4110.820313,4086.205078,4100.563965,4083.641113,4107.743652,4111.333008,4106.717773,4114.410156,4092.358887,4104.153809,4123.12793,0,2044,2044,0,0,0,1192,109,2,3,4,4,3,3,1,3,4,4,3,4,4,4,4,4
57,0,4104.461426,4091.641113,4086.512695,4093.179199,4085.487305,4088.05127,4074.717773,4096.256348,4098.820313,4094.205078,4104.461426,4071.641113,4088.563965,4110.615234,0,2044,2043,0,0,0,1192,117,2,3,4,4,3,3,1,3,4,4,3,4,4,4,4,4
58,0,4133.025391,4116.102539,4112,4120.205078,4117.12793,4117.641113,4104.820313,4121.230469,4121.743652,4118.153809,4127.897461,4100.205078,4119.179199,4134.563965,0,2043,2044,0,0,0,1192,125,2,3,4,4,3,3,1,3,4,4,3,4,4,4,4,4
59,0,4206.384277,4187.922852,4186.897461,4194.589844,4186.897461,4191.512695,4187.410156,4195.615234,4190.487305,4187.922852,4193.563965,4179.205078,4196.641113,4204.846191,0,2045,2044,0,0,0,1192,133,2,3,4,4,3,3,1,3,4,4,3,4,4,4,4,4
60,0,4170.307617,4154.922852,4152.871582,4159.538574,4155.436035,4154.410156,4162.102539,4160.05127,4150.307617,4148.256348,4152.358887,4133.897461,4153.897461,4164.153809,0,2044,2042,0,0,0,1192,142,2,3,4,4,3,3,1,3,4,4,3,4,4,4,4,4
61,0,4272.07666,4254.12793,4250.538574,4260.281738,4256.179199,4251.05127,4256.692383,4255.153809,4254.641113,4250.025391,4260.281738,4237.717773,4253.102539,4267.461426,0,2044,2042,0,0,0,1192,150,2,3,4,4,3,3,1,3,4,4,3,4,4,4,4,4
62,0,4199.461426,4186.641113,4180.487305,4198.436035,4185.615234,4184.589844,4182.025391,4191.769043,4192.794922,4187.666504,4195.871582,4168.692383,4188.692383,4205.102539,0,2043,2043,0,0,0,1192,158,2,3,4,4,3,3,1,3,4,4,3,4,4,4,4,4
63,0,4255.922852,4241.563965,4239.512695,4253.358887,4237.461426,4240.538574,4235.922852,4253.358887,4253.358887,4248.230469,4256.94873,4229.769043,4246.179199,4269.769043,0,2042,2040,0,0,0,1192,165,2,3,4,4,3,3,1,3,4,4,3,4,4,4,4,4
64,0,4252.538574,4234.589844,4232.538574,4241.256348,4228.94873,4229.974121,4234.589844,4243.820313,4250.487305,4244.333008,4256.12793,4227.922852,4242.281738,4264.846191,238,2043,2040,0,0,0,1192,173,2,3,4,4,3,3,1,3,4,4,3,4,4,4,4,4
65,0,4163.436035,4151.641113,4145.487305,4157.794922,4146.512695,4144.461426,4153.179199,4153.692383,4162.410156,4158.307617,4168.563965,4135.230469,4155.230469,4173.179199,315,2044,2040,0,0,0,1192,180,2,3,4,4,3,3,1,3,4,4,3,4,4,4,4,4
66,0,4186,4169.589844,4167.025391,4176.256348,4165.487305,4163.94873,4168.05127,4175.230469,4180.871582,4177.281738,4187.025391,4161.897461,4174.717773,4197.281738,399,2043,2041,0,0,0,1192,189,2,3,4,4,3,3,1,3,4,4,3,4,4,4,4,4
67,0,4267.461426,4252.589844,4247.974121,4252.589844,4249.512695,4249.512695,4252.07666,4258.230469,4259.256348,4255.153809,4264.384277,4239.256348,4255.666504,4278.230469,436,2042,2042,0,0,0,1192,197,2,3,4,4,3,3,1,3,4,4,3,4,4,4,4,4
68,0,4164.512695,4154.769043,4146.563965,4148.615234,4152.717773,4148.102539,4155.281738,4153.743652,4158.871582,4156.820313,4168.102539,4139.897461,4156.307617,4177.846191,345,2042,2042,0,0,0,1192,205,2,3,4,4,3,3,1,3,4,4,3,4,4,4,4,4
69,0,4221.666504,4204.743652,4200.641113,4195.512695,4202.692383,4198.07666,4204.230469,4204.743652,4213.974121,4212.436035,4221.666504,4196.538574,4208.333008,4232.436035,391,2043,2044,0,0,0,1192,213,2,3,4,4,3,3,1,3,4,4,3,4,4,4,4,4
70,0,4257.05127,4240.12793,4237.05127,4228.333008,4239.615234,4241.153809,4239.615234,4240.641113,4246.281738,4239.615234,4248.333008,4222.692383,4239.102539,4260.641113,98,2046,2044,0,0,0,1192,221,2,3,4,4,3,3,1,3,4,4,3,4,4,4,4,4
71,0,4263.563965,4247.666504,4246.12793,4236.897461,4249.717773,4249.717773,4246.12793,4249.205078,4256.897461,4247.666504,4261,4237.922852,4249.717773,4273.307617,305,2046,2046,0,0,0,1192,229,2,3,4,4,3,3,1,2,4,4,3,4,4,4,4,4
72,0,4204.025391,4188.12793,4188.12793,4176.846191,4191.205078,4186.07666,4190.692383,4192.743652,4198.897461,4193.769043,4204.538574,4177.358887,4193.769043,4217.358887,881,2046,2045,0,0,0,1192,236,2,3,4,4,3,3,1,2,4,4,3,4,4,4,4,4
73,0,4164.102539,4145.641113,4147.692383,4130.769043,4148.717773,4146.153809,4148.205078,4150.769043,4157.94873,4154.358887,4164.102539,4133.846191,4150.769043,4173.846191,850,2046,2044,0,0,0,1192,243,2,3,4,4,3,3,1,2,4,4,3,4,4,4,4,4
74,0,4110.666504,4091.692383,4092.205078,4077.846191,4092.717773,4094.769043,4088.102539,4095.281738,4109.641113,4101.94873,4114.256348,4087.589844,4098.358887,4125.025391,300,2045,2043,0,0,0,1192,251,2,3,4,4,3,3,1,2,4,4,3,4,4,4,4,4
75,0,4282.897461,4275.717773,4269.563965,4265.974121,4269.563965,4271.615234,4271.615234,4273.666504,4278.794922,4271.615234,4280.333008,4256.230469,4273.153809,4298.281738,527,2045,2043,0,0,0,1192,259,2,3,4,4,3,3,1,2,4,4,3,4,4,4,4,4
76,0,4134,4125.281738,4118.615234,4120.153809,4115.538574,4118.102539,4123.743652,4122.205078,4124.256348,4121.692383,4129.897461,4109.384277,4123.743652,4147.333008,933,2045,2044,0,0,0,1192,267,2,3,4,4,3,3,1,2,4,4,3,4,4,4,4,4
77,0,4195.641113,4183.333008,4175.641113,4179.230469,4180.256348,4180.256348,4179.230469,4187.436035,4194.615234,4192.05127,4202.307617,4172.05127,4184.871582,4213.07666,475,2044,2044,0,0,0,1192,275,2,3,4,4,3,3,1,2,4,4,3,4,4,4,4,4
78,0,4218.589844,4210.384277,4200.641113,4209.871582,4211.922852,4208.333008,4202.692383,4217.563965,4225.769043,4218.589844,4230.897461,4196.025391,4209.358887,4244.230469,300,2042,2045,0,0,0,1192,283,2,3,4,4,3,3,1,2,4,4,3,4,4,4,4,4
79,0,4173.07666,4164.871582,4154.615234,4170.512695,4161.794922,4161.281738,4160.769043,4167.436035,4177.692383,4172.563965,4181.281738,4153.589844,4165.897461,4199.743652,527,2041,2045,0,0,0,1192,291,2,3,4,4,3,3,1,2,4,4,3,4,4,4,4,4
80,0,4236.436035,4231.820313,4217.461426,4240.025391,4226.179199,4228.743652,4229.769043,4231.820313,4240.538574,4237.974121,4241.563965,4211.307617,4229.256348,4257.974121,933,2043,2044,0,0,0,1192,299,2,3,4,4,3,3,1,2,4,4,3,4,4,4,4,4
81,0,4147.589844,4138.871582,4130.153809,4144.512695,4131.692383,4136.820313,4129.641113,4143.487305,4155.794922,4149.12793,4158.358887,4127.589844,4137.333008,4173.743652,475,2044,2044,0,0,0,1192,306,2,3,4,4,3,3,1,2,4,4,3,4,4,4,4,4
82,0,4111.589844,4099.281738,4097.230469,4100.307617,4092.102539,4096.717773,4090.05127,4102.871582,4116.205078,4109.538574,4119.794922,4091.07666,4100.820313,4137.230469,300,2043,2044,0,0,0,1192,314,2,3,4,4,3,3,1,2,4,4,3,4,4,4,4,4
83,0,4245.410156,4235.666504,4231.05127,4234.12793,4225.410156,4231.05127,4230.025391,4230.025391,4234.641113,4230.025391,4235.666504,4213.102539,4230.538574,4255.153809,527,2041,2041,0,0,0,1192,322,2,3,4,4,3,3,1,2,4,4,3,4,4,4,4,4
84,0,4196,4182.666504,4174.461426,4184.205078,4161.12793,4179.589844,4174.461426,4177.538574,4175.487305,4171.897461,4178.05127,4162.666504,4177.025391,4197.025391,933,2039,2039,0,0,0,1192,331,2,3,4,4,3,3,1,2,4,4,3,4,4,4,4,4
85,0,4144.410156,4133.641113,4127.487305,4144.410156,4110.563965,4136.205078,4124.410156,4134.666504,4135.179199,4130.563965,4138.769043,4112.615234,4131.07666,4154.666504,475,2040,2042,0,0,0,1192,339,2,3,4,4,3,3,1,2,4,4,3,4,4,4,4,4
86,0,4132.410156,4123.692383,4121.12793,4133.436035,4107.281738,4122.666504,4112.922852,4124.717773,4131.384277,4126.256348,4136,4109.333008,4123.692383,4149.333008,300,2040,2042,0,0,0,1192,347,2,3,4,4,3,3,1,2,4,4,3,4,4,4,4,4
87,0,4163.333008,4157.179199,4151.025391,4161.281738,4144.871582,4151.025391,4146.410156,4155.641113,4155.12793,4150.512695,4159.230469,4140.256348,4156.666504,4176.153809,527,2041,2044,0,0,0,1192,355,2,3,4,4,3,3,1,2,4,4,3,4,4,4,4,4
88,0,4173.641113,4174.153809,4165.436035,4180.820313,4166.974121,4168.512695,4166.461426,4170.563965,4162.871582,4158.769043,4168.512695,4149.538574,4172.102539,4190.05127,933,2042,2044,0,0,0,1192,362,2,3,4,4,3,3,1,2,4,4,3,4,4,4,4,4
89,0,4249.153809,4249.153809,4244.025391,4259.410156,4245.563965,4246.07666,4243,4247.102539,4245.05127,4240.436035,4250.692383,4235.820313,4249.666504,4272.743652,475,2043,2046,0,0,0,1192,370,2,3,4,4,3,3,1,2,4,4,3,4,4,4,4,4
90,0,4237.102539,4237.615234,4232.487305,4246.846191,4234.025391,4237.615234,4231.974121,4235.563965,4225.307617,4222.743652,4226.846191,4214.025391,4231.974121,4249.922852,300,2043,2046,0,0,0,1192,378,2,3,4,4,3,3,1,2,4,4,3,4,4,4,4,4
91,0,4147.641113,4147.12793,4144.05127,4157.897461,4146.615234,4145.589844,4140.974121,4142,4126.102539,4125.07666,4130.717773,4124.563965,4142,4155.846191,527,2044,2045,0,0,0,1192,386,2,3,4,4,3,3,1,2,4,4,3,4,4,4,4,4
92,0,4125.12793,4127.179199,4121.025391,4140,4127.179199,4120.512695,4118.974121,4120.512695,4114.871582,4109.743652,4118.974121,4109.743652,4124.102539,4142.563965,933,2044,2044,0,0,0,1192,394,2,3,4,4,3,3,1,2,4,4,3,4,4,4,4,4
93,0,4176.615234,4183.281738,4172,4191.487305,4178.666504,4173.025391,4174.563965,4175.07666,4170.974121,4166.871582,4174.05127,4154.05127,4173.025391,4192.512695,475,2044,2043,0,0,0,1192,402,2,3,4,4,3,3,1,2,4,4,3,4,4,4,4,4
94,0,4109.692383,4112.256348,4105.07666,4117.384277,4106.615234,4103.538574,4100.974121,4107.12793,4100.461426,4099.436035,4104.563965,4088.666504,4107.641113,4124.563965,300,2044,2041,0,0,0,1192,410,2,3,4,4,3,3,1,2,4,4,3,4,4,4,4,4
95,0,4106,4110.615234,4106.512695,4120.358887,4110.102539,4105.487305,4102.410156,4109.589844,4102.922852,4096.769043,4102.922852,4084.974121,4111.12793,4123.94873,527,2043,2040,0,0,0,1192,418,2,3,4,4,3,3,1,2,4,4,3,4,4,4,4,4
96,0,4120.512695,4123.07666,4121.025391,4137.436035,4124.615234,4120.512695,4119.487305,4125.641113,4117.436035,4106.666504,4117.94873,4097.94873,4124.102539,4135.897461,933,2043,2043,0,0,0,1192,426,2,3,4,4,3,3,1,2,4,4,3,4,4,4,4,4
97,0,4098.512695,4099.538574,4094.922852,4102.102539,4098,4095.436035,4094.922852,4096.974121,4082.102539,4076.461426,4085.179199,4072.358887,4097.487305,4107.743652,475,2043,2042,0,0,0,1192,434,2,3,4,4,3,3,1,2,4,4,3,4,4,4,4,4
98,0,4246.897461,4256.641113,4246.384277,4245.358887,4253.563965,4248.94873,4246.897461,4245.358887,4223.820313,4221.256348,4224.846191,4214.589844,4245.358887,4251,300,2043,2044,0,0,0,1192,441,2,3,4,4,3,3,1,2,4,4,3,4,4,4,4,4
99,0,4241.615234,4248.281738,4240.589844,4246.743652,4245.205078,4240.07666,4236.487305,4238.538574,4226.743652,4218.538574,4228.281738,4215.974121,4240.589844,4250.333008,527,2043,2045,0,0,0,1192,449,2,3,4,4,3,3,1,2,4,4,3,4,4,4,4,4
100,0,4280.025391,4286.179199,4280.538574,4296.436035,4285.153809,4280.538574,4280.025391,4279,4266.179199,4257.974121,4269.256348,4254.897461,4279,4291.307617,933,2043,2046,0,0,0,1192,457,2,3,4,4,3,3,1,2,4,4,3,4,4,4,4,4
101,0,4194.384277,4205.153809,4197.974121,4212.846191,4203.102539,4200.538574,4195.922852,4192.846191,4173.358887,4168.230469,4178.487305,4171.820313,4193.871582,4204.641113,475,2044,2045,0,0,0,1192,465,2,3,4,4,3,3,1,2,4,4,3,4,4,4,4,4
102,0,4253.461426,4266.281738,4255,4270.384277,4260.641113,4261.153809,4249.871582,4250.897461,4238.589844,4233.974121,4242.692383,4235.512695,4258.07666,4264.743652,300,2044,2046,0,0,0,1192,472,2,3,4,4,3,3,1,2,4,4,3,4,4,4,4,4
103,0,4188.436035,4205.871582,4191.512695,4211.512695,4202.794922,4198.179199,4189.461426,4194.589844,4187.410156,4185.358887,4190.487305,4168.94873,4194.07666,4205.871582,527,2046,2047,0,0,0,1192,480,2,3,4,4,3,3,1,2,4,4,3,4,4,4,4,4
104,0,4180.05127,4189.794922,4181.589844,4194.410156,4187.230469,4178,4175.94873,4183.12793,4176.974121,4177.487305,4181.589844,4166.717773,4180.563965,4199.538574,933,2045,2046,0,0,0,1192,489,2,3,4,4,3,3,1,2,4,4,3,4,4,4,4,4
105,0,4218.94873,4223.563965,4221.512695,4230.230469,4221.512695,4216.384277,4216.384277,4216.897461,4206.641113,4205.102539,4208.692383,4199.461426,4221.512695,4230.230469,475,2045,2045,0,0,0,1192,496,2,3,4,4,3,3,1,2,4,4,3,4,4,4,4,4
106,0,4226.436035,4231.05127,4230.025391,4240.281738,4232.07666,4226.94873,4224.897461,4225.410156,4212.07666,4210.025391,4217.717773,4205.922852,4231.05127,4236.692383,300,2045,2044,0,0,0,1192,504,2,3,4,4,3,3,1,2,4,4,3,4,4,4,4,4
107,0,4276.589844,4280.179199,4275.563965,4287.358887,4279.153809,4270.94873,4269.922852,4276.589844,4265.820313,4263.769043,4275.563965,4261.717773,4277.615234,4289.410156,527,2046,2043,0,0,0,1192,511,2,3,4,4,3,3,1,2,4,4,3,4,4,4,4,4
108,0,4206.436035,4216.179199,4209,4221.307617,4211.563965,4206.436035,4209,4212.07666,4200.281738,4196.179199,4204.384277,4184.897461,4207.974121,4212.589844,933,2048,2039,0,0,0,1192,519,2,3,4,4,3,3,1,2,4,4,3,4,4,4,4,4
109,0,4088.512695,4094.666504,4089.025391,4093.12793,4090.05127,4087.487305,4088,4088.512695,4076.717773,4075.179199,4080.820313,4065.436035,4090.05127,4088,475,2048,2040,0,0,0,1192,527,2,3,4,4,3,3,1,2,4,4,3,4,4,4,4,4
110,0,4114.05127,4121.743652,4112,4113.538574,4117.641113,4113.538574,4107.384277,4110.461426,4094.05127,4092.512695,4099.692383,4085.846191,4112,4110.974121,300,2048,2039,0,0,0,1192,535,2,3,4,4,3,3,1,2,4,4,3,4,4,4,4,4
111,0,4211.461426,4225.307617,4215.563965,4217.102539,4220.692383,4215.563965,4208.384277,4209.410156,4193.512695,4186.846191,4196.07666,4181.205078,4210.436035,4209.410156,527,2046,2040,0,0,0,1192,543,2,3,4,4,3,3,1,2,4,4,3,4,4,4,4,4
112,0,4208.897461,4223.256348,4217.102539,4204.794922,4216.589844,4214.025391,4211.461426,4207.358887,4194.538574,4189.922852,4197.615234,4187.358887,4214.025391,4207.358887,933,2047,2041,0,0,0,1192,551,2,3,4,4,3,3,1,2,4,4,3,4,4,4,4,4
113,0,4249.769043,4265.153809,4259,4236.94873,4260.538574,4260.025391,4256.94873,4251.307617,4228.230469,4228.743652,4234.897461,4223.615234,4252.846191,4240.538574,475,2045,2043,0,0,0,1192,559,2,3,4,4,3,3,1,2,4,4,3,4,4,4,4,4
114,0,4203.871582,4216.179199,4213.615234,4196.179199,4209.512695,4214.641113,4206.436035,4209.512695,4184.384277,4182.846191,4191.563965,4179.769043,4204.897461,4195.666504,300,2043,2045,0,0,0,1192,567,2,3,4,4,3,3,1,2,4,4,3,4,4,4,4,4
115,0,4103.384277,4118.256348,4111.589844,4101.846191,4104.410156,4117.743652,4111.07666,4113.641113,4095.692383,4091.07666,4094.666504,4080.820313,4109.025391,4099.794922,527,2043,2045,0,0,0,1192,574,2,3,4,4,3,3,1,2,4,4,3,4,4,4,4,4
116,0,4259.871582,4277.820313,4267.05127,4254.230469,4259.871582,4274.743652,4271.666504,4264.487305,4244.487305,4241.922852,4244.487305,4234.230469,4261.410156,4250.641113,933,2045,2045,0,0,0,1192,582,2,3,4,4,3,3,1,2,4,4,3,4,4,4,4,4
117,0,4268.487305,4279.769043,4275.666504,4259.769043,4259.769043,4276.179199,4270.025391,4264.897461,4248.487305,4243.358887,4255.153809,4245.922852,4264.384277,4257.717773,475,2045,2045,0,0,0,1192,590,2,3,4,4,3,3,1,2,4,4,3,4,4,4,4,4
118,0,4088.871582,4102.717773,4098.615234,4091.94873,4089.897461,4101.179199,4094.512695,4089.897461,4080.153809,4073.487305,4084.256348,4065.281738,4089.897461,4082.205078,300,2043,2042,0,0,0,1192,598,2,3,4,4,3,3,1,2,4,4,3,4,4,4,4,4
119,0,4222.487305,4237.871582,4229.153809,4219.410156,4230.692383,4231.205078,4225.05127,4220.436035,4210.692383,4206.07666,4211.205078,4201.461426,4224.538574,4211.717773,527,2042,2041,0,0,0,1192,607,2,3,4,4,3,3,1,2,4,4,3,4,4,4,4,4
120,0,4251.461426,4264.794922,4258.641113,4236.07666,4259.666504,4255.563965,4248.897461,4246.846191,4227.358887,4224.794922,4228.384277,4224.794922,4246.846191,4232.487305,933,2042,2038,0,0,0,1192,615,2,3,4,4,3,3,1,2,4,4,3,4,4,4,4,4
121,0,4254.743652,4269.102539,4268.07666,4247.05127,4267.05127,4263.974121,4259.871582,4251.153809,4221.922852,4221.410156,4226.025391,4219.358887,4247.563965,4231.666504,475,2042,2039,0,0,0,1192,623,2,3,4,4,3,3,1,2,4,4,3,4,4,4,4,4
122,0,4136.358887,4143.538574,4144.563965,4132.256348,4144.05127,4140.461426,4140.461426,4128.153809,4101.487305,4098.922852,4104.563965,4105.589844,4132.769043,4112.769043,300,2042,2042,0,0,0,1192,630,2,3,4,4,3,3,1,2,4,4,3,4,4,4,4,4
123,0,4236.897461,4245.615234,4241,4231.769043,4242.538574,4237.922852,4237.922852,4231.769043,4209.717773,4204.07666,4211.769043,4202.025391,4235.358887,4216.384277,527,2042,2042,0,0,0,1192,637,2,3,4,4,3,3,1,2,4,4,3,4,4,4,4,4
124,0,4077.384277,4089.692383,4085.589844,4071.230469,4084.563965,4080.974121,4076.358887,4078.410156,4059.436035,4054.820313,4066.615234,4048.666504,4078.922852,4067.12793,933,2042,2043,0,0,0,1192,645,2,3,4,4,3,3,1,2,4,4,3,4,4,4,4,4
125,0,4179.820313,4195.205078,4190.589844,4178.794922,4190.589844,4185.974121,4183.922852,4182.897461,4164.94873,4161.871582,4168.025391,4158.281738,4184.94873,4170.589844,475,2042,2042,0,0,0,1192,653,2,3,4,4,3,3,1,2,4,4,3,4,4,4,4,4
126,0,4196.333008,4212.743652,4208.12793,4199.410156,4209.153809,4203.512695,4204.538574,4196.333008,4178.384277,4173.769043,4177.871582,4168.641113,4197.358887,4179.922852,300,2042,2043,0,0,0,1192,661,2,3,4,4,3,3,1,2,4,4,3,4,4,4,4,4
127,0,4238.025391,4246.230469,4244.692383,4228.794922,4241.102539,4239.05127,4236.487305,4228.281738,4213.410156,4207.769043,4217,4207.256348,4231.358887,4219.05127,527,2042,2044,0,0,0,1192,669,2,3,4,4,3,3,1,2,4,4,3,4,4,4,4,4
128,0,4109.94873,4122.256348,4112.512695,4103.281738,4114.563965,4113.538574,4108.922852,4103.281738,4081.743652,4078.666504,4083.794922,4073.025391,4104.307617,4088.410156,933,2042,2044,0,0,0,1192,677,2,3,4,4,3,3,1,2,4,4,3,4,4,4,4,4
0,0,4193.563965,4206.384277,4194.07666,4191.512695,4196.641113,4195.615234,4186.897461,4190.487305,4170.487305,4169.461426,4173.563965,4160.743652,4189.461426,4173.05127,260,2043,2044,0,0,0,1192,685,2,3,4,4,3,3,1,2,4,4,3,4,4,4,4,4
1,0,4125.589844,4131.230469,4126.615234,4120.974121,4125.07666,4120.461426,4114.307617,4120.461426,4106.102539,4104.05127,4113.281738,4098.410156,4122.512695,4109.692383,315,2043,2044,0,0,0,1192,693,2,3,4,4,3,3,1,2,4,4,3,4,4,4,4,4
2,0,4269.358887,4281.153809,4276.538574,4271.922852,4278.589844,4270.384277,4271.410156,4266.281738,4248.333008,4243.717773,4252.436035,4238.589844,4265.256348,4252.94873,399,2044,2042,0,0,0,1192,701,2,3,4,4,3,3,1,2,4,4,3,4,4,4,4,4
3,0,4152.563965,4163.333008,4157.692383,4153.589844,4159.743652,4156.153809,4151.025391,4145.897461,4133.589844,4128.974121,4136.666504,4126.922852,4145.384277,4138.717773,436,2042,2043,0,0,0,1192,709,2,3,4,4,3,3,1,2,4,4,3,4,4,4,4,4
4,0,4195.102539,4203.307617,4197.666504,4193.563965,4199.717773,4200.230469,4186.897461,4190.487305,4182.794922,4179.717773,4185.358887,4166.897461,4191,4183.307617,345,2042,2045,0,0,0,1192,717,2,3,4,4,3,3,1,2,4,4,3,4,4,4,4,4
5,0,4131.487305,4139.179199,4133.538574,4129.436035,4135.589844,4132.512695,4127.384277,4129.436035,4119.179199,4115.589844,4122.256348,4104.307617,4130.974121,4118.666504,391,2042,2043,0,0,0,1192,725,2,3,4,4,3,3,1,2,4,4,3,4,4,4,4,4
6,0,4215.461426,4222.12793,4216.487305,4210.333008,4215.461426,4213.410156,4217.512695,4210.846191,4197.512695,4192.897461,4200.589844,4191.358887,4213.922852,4201.615234,98,2041,2044,0,0,0,1192,733,2,3,4,4,3,3,1,2,4,4,3,4,4,4,4,4
7,0,4126.922852,4137.179199,4133.07666,4124.358887,4132.563965,4130,4133.07666,4124.358887,4106.922852,4100.769043,4107.94873,4095.641113,4124.358887,4112.563965,329,2040,2043,0,0,0,1192,741,2,3,4,4,3,3,1,3,4,4,3,4,4,4,4,4
8,0,4193.05127,4201.256348,4197.666504,4194.589844,4199.717773,4193.05127,4190.487305,4191.512695,4182.794922,4176.12793,4186.897461,4172.025391,4194.589844,4184.333008,884,2039,2043,0,0,0,1192,749,2,3,4,4,3,3,1,3,4,4,3,4,4,4,4,4
9,0,4200.897461,4212.179199,4202.436035,4209.615234,4210.12793,4205.512695,4202.94873,4202.94873,4198.333008,4193.205078,4203.461426,4182.436035,4206.538574,4195.256348,853,2040,2043,0,0,0,1192,756,2,3,4,4,3,3,1,3,4,4,3,4,4,4,4,4
10,0,4225.871582,4234.589844,4229.974121,4232.025391,4232.025391,4228.436035,4229.974121,4224.846191,4216.641113,4210.487305,4219.717773,4200.743652,4227.410156,4217.666504,298,2041,2043,0,0,0,1192,764,2,3,4,4,3,3,1,3,4,4,3,4,4,4,4,4
11,0,4166.05127,4170.666504,4170.666504,4166.563965,4164.512695,4161.94873,4163.487305,4164,4155.794922,4148.615234,4156.820313,4139.897461,4165.025391,4158.871582,569,2041,2045,0,0,0,1192,772,2,3,4,4,3,3,1,3,4,4,3,4,4,4,4,4
12,0,4116.05127,4126.307617,4120.666504,4117.07666,4120.153809,4119.12793,4117.07666,4115.025391,4108.358887,4102.717773,4109.897461,4086.307617,4112.461426,4107.846191,933,2041,2045,0,0,0,1192,780,2,3,4,4,3,3,1,3,4,4,3,4,4,4,4,4
13,0,4097.743652,4103.384277,4098.256348,4093.12793,4097.230469,4094.153809,4090.563965,4090.05127,4085.94873,4080.307617,4090.563965,4072.102539,4090.05127,4086.974121,470,2042,2044,0,0,0,1192,788,2,3,4,4,3,3,1,3,4,4,3,4,4,4,4,4
14,0,4275.717773,4278.794922,4272.641113,4273.153809,4272.641113,4267.512695,4268.538574,4271.102539,4264.94873,4259.820313,4267,4246.487305,4270.589844,4262.384277,298,2043,2043,0,0,0,1192,796,2,3,4,4,3,3,1,3,4,4,3,4,4,4,4,4
15,0,4088.563965,4096.769043,4089.07666,4092.666504,4092.153809,4088.05127,4089.07666,4088.05127,4080.358887,4078.820313,4084.461426,4060.871582,4086.512695,4077.281738,569,2043,2044,0,0,0,1192,804,2,3,4,4,3,3,1,3,4,4,3,4,4,4,4,4
16,0,4104.563965,4112.769043,4106.615234,4108.153809,4108.153809,4108.153809,4102,4103.025391,4095.846191,4094.307617,4102.512695,4085.07666,4100.974121,4096.871582,0,2043,2042,0,0,0,1192,812,2,3,4,4,3,3,1,3,4,4,3,4,4,4,4,4
17,0,4193.512695,4204.281738,4195.05127,4201.717773,4202.743652,4201.717773,4193.512695,4194.025391,4182.230469,4177.102539,4184.794922,4166.846191,4187.358887,4181.717773,0,2044,2041,0,0,0,1192,820,2,3,4,4,3,3,1,3,4,4,3,4,4,4,4,4
18,0,4278.692383,4285.358887,4278.179199,4282.281738,4283.307617,4282.794922,4276.641113,4275.102539,4269.461426,4267.410156,4274.07666,4253.563965,4274.589844,4269.974121,0,2045,2042,0,0,0,1192,827,2,3,4,4,3,3,1,3,4,4,3,4,4,4,4,4
19,0,4134.205078,4138.820313,4134.717773,4134.205078,4134.205078,4135.230469,4130.615234,4131.641113,4127.538574,4129.589844,4135.230469,4108.563965,4131.641113,4128.05127,0,2045,2042,0,0,0,1192,834,2,3,4,4,3,3,1,3,4,4,3,4,4,4,4,4
20,0,4268.12793,4275.307617,4269.666504,4272.230469,4268.641113,4267.615234,4262.487305,4266.589844,4260.436035,4254.794922,4265.563965,4240.436035,4263.512695,4259.410156,0,2046,2044,0,0,0,1192,842,2,3,4,4,3,3,1,3,4,4,3,4,4,4,4,4
21,0,4250.12793,4256.794922,4249.615234,4250.641113,4251.666504,4249.615234,4243.974121,4245.512695,4242.436035,4232.179199,4245.512695,4229.102539,4249.102539,4243.461426,0,2045,2043,0,0,0,1192,850,2,3,4,4,3,3,1,3,4,4,3,4,4,4,4,4
22,0,4217.974121,4228.743652,4221.563965,4221.563965,4228.743652,4228.230469,4220.025391,4216.94873,4206.692383,4204.641113,4209.769043,4189.769043,4217.461426,4211.307617,0,2046,2044,0,0,0,1192,858,2,3,4,4,3,3,1,3,4,4,3,4,4,4,4,4
23,0,4148.102539,4155.281738,4150.153809,4152.205078,4152.717773,4152.205078,4143.487305,4146.05127,4133.230469,4131.179199,4138.871582,4117.846191,4144.512695,4140.922852,0,2047,2043,0,0,0,1192,866,2,3,4,4,3,3,1,3,4,4,3,4,4,4,4,4
24,0,4263.563965,4268.692383,4263.05127,4269.205078,4263.563965,4259.974121,4259.974121,4261,4252.794922,4246.12793,4255.871582,4237.922852,4263.563965,4258.436035,0,2047,2043,0,0,0,1192,874,2,3,4,4,3,3,1,3,4,4,3,4,4,4,4,4
25,0,4105.333008,4117.12793,4113.025391,4123.794922,4115.589844,4112,4114.563965,4108.410156,4099.179199,4097.12793,4100.717773,4084.820313,4108.410156,4102.769043,0,2048,2042,0,0,0,1192,883,2,3,4,4,3,3,1,3,4,4,3,4,4,4,4,4
26,0,4132.461426,4142.717773,4142.205078,4151.94873,4140.666504,4138.615234,4134.512695,4134.512695,4123.743652,4123.230469,4128.871582,4115.538574,4132.461426,4130.410156,0,2047,2039,0,0,0,1192,890,2,3,4,4,3,3,1,3,4,4,3,4,4,4,4,4
27,0,4154.410156,4169.281738,4165.179199,4172.358887,4162.102539,4161.589844,4158,4160.563965,4148.256348,4143.641113,4151.846191,4132.871582,4155.94873,4151.333008,0,2048,2039,0,0,0,1192,898,2,3,4,4,3,3,1,3,4,4,3,4,4,4,4,4
28,0,4238.384277,4254.281738,4248.641113,4249.153809,4248.12793,4248.12793,4245.05127,4246.07666,4236.333008,4234.281738,4239.922852,4222.487305,4241.461426,4235.820313,0,2048,2040,0,0,0,1192,906,2,3,4,4,3,3,1,3,4,4,3,4,4,4,4,4
29,0,4176.922852,4191.281738,4186.666504,4183.07666,4188.717773,4189.743652,4182.05127,4183.589844,4174.358887,4174.358887,4178.461426,4159.487305,4180,4175.384277,0,2048,2041,0,0,0,1192,914,2,3,4,4,3,3,1,3,4,4,3,4,4,4,4,4
30,0,4201,4215.358887,4209.717773,4209.205078,4212.794922,4211.769043,4203.05127,4205.102539,4195.871582,4191.256348,4199.461426,4174.846191,4203.05127,4199.461426,0,2048,2043,0,0,0,1192,921,2,3,4,4,3,3,1,3,4,4,3,4,4,4,4,4
31,0,4139.025391,4148.256348,4144.666504,4145.692383,4143.12793,4142.102539,4136.974121,4141.07666,4134.922852,4128.256348,4138.512695,4121.589844,4142.615234,4138,0,2046,2044,0,0,0,1192,929,2,3,4,4,3,3,1,3,4,4,3,4,4,4,4,4
32,0,4126.871582,4137.641113,4135.07666,4138.153809,4133.538574,4132,4132.512695,4133.025391,4125.846191,4121.230469,4128.410156,4109.436035,4129.94873,4124.307617,0,2047,2044,0,0,0,1192,937,2,3,4,4,3,3,1,3,4,4,3,4,4,4,4,4
33,0,4102.563965,4111.794922,4109.230469,4112.820313,4107.692383,4104.102539,4106.153809,4106.666504,4107.179199,4101.538574,4112.307617,4086.153809,4104.102539,4104.102539,0,2045,2045,0,0,0,1192,945,2,3,4,4,3,3,1,3,4,4,3,4,4,4,4,4
34,0,4198.12793,4200.692383,4198.12793,4204.281738,4195.563965,4193,4194.538574,4198.641113,4202.743652,4196.07666,4205.307617,4181.205078,4198.641113,4199.666504,0,2044,2044,0,0,0,1192,953,2,3,4,4,3,3,1,3,4,4,3,4,4,4,4,4
35,0,4145.384277,4149.487305,4149.487305,4159.743652,4147.94873,4144.871582,4146.922852,4148.974121,4138.717773,4134.102539,4140.769043,4120.769043,4144.358887,4141.281738,0,2044,2042,0,0,0,1192,961,2,3,4,4,3,3,1,3,4,4,3,4,4,4,4,4
36,0,4163.025391,4165.07666,4167.641113,4177.897461,4163.538574,4159.94873,4162,4162.512695,4148.666504,4147.12793,4157.384277,4142,4162.512695,4160.974121,0,2043,2043,0,0,0,1192,969,2,3,4,4,3,3,1,3,4,4,3,4,4,4,4,4
37,0,4199.512695,4203.615234,4203.102539,4217.974121,4201.05127,4197.974121,4201.563965,4195.922852,4187.717773,4186.692383,4193.358887,4174.897461,4200.025391,4198.487305,0,2042,2043,0,0,0,1192,977,2,3,4,4,3,3,1,3,4,4,3,4,4,4,4,4
38,0,4081.94873,4085.538574,4088.102539,4103.487305,4084.512695,4081.94873,4086.05127,4078.358887,4074.769043,4066.563965,4074.256348,4057.846191,4080.410156,4080.410156,0,2042,2042,0,0,0,1192,985,2,3,4,4,3,3,1,3,4,4,3,4,4,4,4,4
39,0,4139.487305,4143.07666,4144.615234,4159.487305,4141.025391,4137.94873,4140.512695,4140.512695,4136.410156,4126.666504,4135.897461,4120,4140,4142.05127,0,2044,2042,0,0,0,1192,993,2,3,4,4,3,3,1,3,4,4,3,4,4,4,4,4
40,0,4202.436035,4212.179199,4206.538574,4223.974121,4211.153809,4205,4205.512695,4208.589844,4196.281738,4193.205078,4197.820313,4178.846191,4204.487305,4203.461426,0,2042,2043,0,0,0,1193,1,2,3,4,4,3,3,1,3,4,4,3,4,4,4,4,4
41,0,4203.461426,4210.12793,4209.102539,4220.897461,4210.641113,4205.512695,4205.512695,4204.487305,4195.256348,4191.666504,4198.846191,4185.512695,4204.487305,4202.436035,0,2042,2042,0,0,0,1193,9,2,3,4,4,3,3,1,3,4,4,3,4,4,4,4,4
42,0,4086.820313,4094.512695,4096.05127,4105.794922,4094,4091.436035,4092.974121,4086.820313,4078.102539,4070.410156,4079.641113,4065.281738,4089.897461,4084.769043,0,2042,2043,0,0,0,1193,17,2,3,4,4,3,3,1,3,4,4,3,4,4,4,4,4
43,0,4182.333008,4192.589844,4192.07666,4200.794922,4192.07666,4186.94873,4186.436035,4181.820313,4171.05127,4165.410156,4171.563965,4157.205078,4184.897461,4182.333008,0,2042,2044,0,0,0,1193,24,2,3,4,4,3,3,1,3,4,4,3,4,4,4,4,4
44,0,4273.922852,4280.589844,4282.12793,4288.281738,4283.666504,4279.05127,4277,4272.384277,4265.205078,4260.589844,4264.179199,4255.461426,4274.436035,4275.461426,0,2042,2044,0,0,0,1193,32,2,3,4,4,3,3,1,3,4,4,3,4,4,4,4,4
45,0,4222.743652,4233,4233.512695,4244.794922,4237.615234,4236.07666,4234.538574,4228.384277,4217.102539,4212.487305,4217.615234,4204.281738,4223.256348,4222.743652,0,2041,2043,0,0,0,1193,39,2,3,4,4,3,3,1,3,4,4,3,4,4,4,4,4
46,0,4082.307617,4091.025391,4091.025391,4098.717773,4091.025391,4088.461426,4089.487305,4086.922852,4072.05127,4069.487305,4076.666504,4066.410156,4085.384277,4082.820313,0,2043,2044,0,0,0,1193,47,2,3,4,4,3,3,1,3,4,4,3,4,4,4,4,4
47,0,4127.333008,4134.512695,4134,4132.974121,4135.538574,4132.974121,4139.641113,4126.307617,4111.436035,4108.871582,4110.922852,4103.743652,4129.384277,4123.230469,0,2043,2044,0,0,0,1193,55,2,3,4,4,3,3,1,3,4,4,3,4,4,4,4,4
48,0,4170.358887,4178.05127,4179.589844,4176,4182.666504,4181.12793,4186.769043,4168.820313,4154.461426,4151.384277,4154.461426,4144.205078,4168.307617,4166.256348,0,2043,2044,0,0,0,1193,64,2,3,4,4,3,3,1,3,4,4,3,4,4,4,4,4
49,0,4185.461426,4192.12793,4194.179199,4190.589844,4192.641113,4191.102539,4189.563965,4184.436035,4171.102539,4171.615234,4177.769043,4165.461426,4184.436035,4186.487305,0,2043,2044,0,0,0,1193,72,2,3,4,4,3,3,1,3,4,4,3,4,4,4,4,4
50,0,4122.820313,4133.589844,4134.615234,4127.436035,4132.05127,4129.487305,4130,4126.410156,4107.94873,4106.922852,4111.025391,4097.692383,4124.871582,4120.256348,0,2043,2043,0,0,0,1193,80,2,3,4,4,3,3,1,3,4,4,3,4,4,4,4,4
51,0,4155.436035,4162.102539,4163.641113,4153.897461,4161.07666,4158,4162.102539,4154.922852,4139.025391,4134.410156,4141.07666,4135.436035,4155.94873,4153.897461,0,2043,2042,0,0,0,1193,88,2,3,4,4,3,3,1,3,4,4,3,4,4,4,4,4
52,0,4132.922852,4140.615234,4137.538574,4131.897461,4139.07666,4138.05127,4141.12793,4132.410156,4119.589844,4118.563965,4122.666504,4114.974121,4134.461426,4138.05127,0,2043,2042,0,0,0,1193,95,2,3,4,4,3,3,1,3,4,4,3,4,4,4,4,4
53,0,4250.230469,4264.589844,4261,4255.358887,4266.641113,4264.07666,4264.07666,4257.410156,4243.05127,4243.05127,4245.102539,4233.307617,4256.897461,4258.436035,0,2043,2042,0,0,0,1193,103,2,3,4,4,3,3,1,3,4,4,3,4,4,4,4,4
54,0,4236.794922,4247.563965,4248.589844,4238.846191,4250.641113,4247.05127,4245.512695,4245.512695,4232.692383,4229.615234,4234.230469,4224.487305,4241.410156,4242.94873,0,2041,2042,0,0,0,1193,111,2,3,4,4,3,3,1,3,4,4,3,4,4,4,4,4
55,0,4227.256348,4237,4239.05127,4232.384277,4239.563965,4235.461426,4232.384277,4235.461426,4224.692383,4222.641113,4225.205078,4209.307617,4231.871582,4233.922852,0,2042,2042,0,0,0,1193,119,2,3,4,4,3,3,1,3,4,4,3,4,4,4,4,4
56,0,4147.846191,4155.538574,4158.102539,4151.94873,4152.974121,4152.461426,4141.692383,4151.436035,4146.820313,4144.256348,4148.871582,4136.05127,4157.07666,4161.692383,0,2042,2043,0,0,0,1193,126,2,3,4,4,3,3,1,3,4,4,3,4,4,4,4,4
57,0,4258.846191,4269.102539,4268.07666,4262.94873,4265,4266.025391,4251.666504,4264.487305,4257.820313,4251.153809,4259.871582,4246.538574,4264.487305,4274.230469,0,2041,2044,0,0,0,1193,134,2,3,4,4,3,3,1,3,4,4,3,4,4,4,4,4
58,0,4173.307617,4187.666504,4182.025391,4178.94873,4186.641113,4184.07666,4179.461426,4181,4169.717773,4161.512695,4170.743652,4154.846191,4172.794922,4184.589844,0,2040,2045,0,0,0,1193,142,2,3,4,4,3,3,1,3,4,4,3,4,4,4,4,4
59,0,4135.846191,4143.538574,4142,4136.871582,4140.974121,4143.025391,4145.07666,4138.410156,4130.205078,4123.025391,4131.743652,4122.512695,4139.436035,4149.179199,0,2042,2045,0,0,0,1193,150,2,3,4,4,3,3,1,3,4,4,3,4,4,4,4,4
60,0,4100.666504,4109.897461,4109.897461,4107.846191,4108.871582,4111.436035,4114,4107.846191,4095.538574,4090.922852,4095.025391,4083.230469,4108.871582,4119.12793,0,2043,2047,0,0,0,1193,158,2,3,4,4,3,3,1,3,4,4,3,4,4,4,4,4
61,0,4112.769043,4122,4123.538574,4121.487305,4123.025391,4120.974121,4124.563965,4118.922852,4108.666504,4103.538574,4113.281738,4097.897461,4117.897461,4138.410156,0,2044,2048,0,0,0,1193,167,2,3,4,4,3,3,1,3,4,4,3,4,4,4,4,4
62,0,4163.179199,4173.94873,4176.512695,4173.436035,4174.461426,4173.436035,4176.512695,4170.358887,4160.102539,4153.436035,4166.256348,4153.94873,4171.897461,4192.410156,0,2044,2046,0,0,0,1193,174,2,3,4,4,3,3,1,3,4,4,3,4,4,4,4,4
63,0,4065.025391,4080.410156,4080.922852,4078.871582,4082.974121,4082.461426,4081.94873,4078.358887,4060.922852,4056.820313,4066.05127,4052.205078,4077.846191,4093.743652,0,2045,2044,0,0,0,1193,182,2,3,4,4,3,3,1,3,4,4,3,4,4,4,4,4
64,0,4102.307617,4112.563965,4114.102539,4107.94873,4115.12793,4112.05127,4110.512695,4110,4100.769043,4096.153809,4106.922852,4089.487305,4112.563965,4134.615234,268,2044,2042,0,0,0,1193,190,2,3,4,4,3,3,1,3,4,4,3,4,4,4,4,4
65,0,4114.256348,4128.102539,4127.589844,4120.410156,4128.102539,4124,4124.512695,4122.974121,4114.769043,4106.05127,4118.871582,4099.897461,4124.512695,4148.615234,315,2044,2040,0,0,0,1193,198,2,3,4,4,3,3,1,3,4,4,3,4,4,4,4,4
66,0,4099.179199,4111.487305,4112,4104.307617,4109.436035,4108.410156,4109.94873,4107.897461,4092,4085.846191,4097.12793,4088.410156,4109.94873,4137.641113,400,2044,2040,0,0,0,1193,205,2,3,4,4,3,3,1,3,4,4,3,4,4,4,4,4
67,0,4080.769043,4085.384277,4088.461426,4080.769043,4085.384277,4084.871582,4085.384277,4085.897461,4074.102539,4071.025391,4077.179199,4066.410156,4091.025391,4121.794922,436,2043,2039,0,0,0,1193,213,2,3,4,4,3,3,1,3,4,4,3,4,4,4,4,4
68,0,4075.743652,4082.410156,4086,4079.846191,4086,4082.922852,4084.974121,4085.487305,4078.820313,4073.179199,4080.871582,4058.820313,4086.512695,4120.358887,345,2042,2041,0,0,0,1193,220,2,3,4,4,3,3,1,3,4,4,3,4,4,4,4,4
69,0,4216.743652,4224.94873,4226.487305,4221.871582,4224.436035,4223.410156,4227.512695,4229.05127,4219.307617,4213.666504,4222.897461,4210.07666,4229.05127,4269.05127,391,2042,2042,0,0,0,1193,228,2,3,4,4,3,3,1,3,4,4,3,4,4,4,4,4
70,0,4173.153809,4185.461426,4181.358887,4180.846191,4182.384277,4182.384277,4185.974121,4183.922852,4167.512695,4165.974121,4170.589844,4160.333008,4184.436035,4224.94873,98,2041,2046,0,0,0,1193,236,2,3,4,4,3,3,1,3,4,4,3,4,4,4,4,4
71,0,4155.794922,4165.538574,4167.07666,4163.487305,4164.512695,4163.487305,4163.487305,4162.461426,4152.205078,4149.641113,4159.897461,4141.94873,4166.05127,4209.12793,337,2042,2047,0,0,0,1193,244,2,3,4,4,3,3,1,3,4,4,3,4,4,4,4,4
72,0,4177.358887,4182.487305,4187.615234,4179.410156,4181.461426,4182.487305,4183,4187.102539,4178.897461,4173.769043,4184.538574,4168.12793,4187.615234,4234.794922,884,2044,2048,0,0,0,1193,252,2,3,4,4,3,3,1,3,4,4,3,4,4,4,4,4
73,0,4208.589844,4221.410156,4219.871582,4214.743652,4218.333008,4220.384277,4224.487305,4221.922852,4205,4201.922852,4204.487305,4195.256348,4219.871582,4263.974121,853,2046,2048,0,0,0,1193,260,2,3,4,4,3,3,1,3,4,4,3,4,4,4,4,4
74,0,4102.615234,4116.974121,4116.974121,4113.384277,4109.794922,4114.410156,4112.871582,4109.281738,4096.974121,4092.358887,4098.512695,4093.897461,4115.436035,4161.07666,298,2044,2045,0,0,0,1193,268,2,3,4,4,3,3,1,3,4,4,3,4,4,4,4,4
75,0,4211.205078,4223,4226.589844,4223,4212.230469,4220.94873,4217.871582,4216.846191,4209.666504,4200.94873,4210.179199,4196.846191,4221.974121,4271.205078,576,2045,2044,0,0,0,1193,276,2,3,4,4,3,3,1,3,4,4,3,4,4,4,4,4
76,0,4236.281738,4245.512695,4248.07666,4241.410156,4233.717773,4242.94873,4244.487305,4240.384277,4230.12793,4225,4231.666504,4220.384277,4245,4295.256348,935,2044,2043,0,0,0,1193,284,2,3,4,4,3,3,1,3,4,4,3,4,4,4,4,4
77,0,4085.794922,4094.512695,4094.512695,4086.820313,4085.794922,4088.871582,4091.94873,4089.897461,4078.615234,4078.102539,4082.205078,4075.538574,4097.07666,4146.307617,474,2044,2042,0,0,0,1193,292,2,3,4,4,3,3,1,3,4,4,3,4,4,4,4,4
78,0,4149.743652,4161.025391,4161.538574,4155.384277,4156.922852,4155.384277,4156.922852,4156.410156,4146.666504,4144.615234,4149.743652,4130.769043,4159.487305,4208.717773,298,2044,2041,0,0,0,1193,300,2,3,4,4,3,3,1,3,4,4,3,4,4,4,4,4
79,0,4167.384277,4173.538574,4176.615234,4167.897461,4173.025391,4171.487305,4170.974121,4168.410156,4163.281738,4158.153809,4164.307617,4147.384277,4175.07666,4226.871582,576,2044,2040,0,0,0,1193,307,2,3,4,4,3,3,1,3,4,4,3,4,4,4,4,4
80,0,4109.179199,4122.512695,4119.94873,4114.820313,4123.538574,4121.487305,4121.487305,4114.307617,4103.538574,4102.512695,4102.512695,4091.743652,4123.025391,4173.794922,935,2045,2042,0,0,0,1193,315,2,3,4,4,3,3,1,3,4,4,3,4,4,4,4,4
81,0,4174.025391,4195.563965,4192.487305,4188.897461,4195.563965,4191.461426,4193,4188.384277,4174.025391,4175.05127,4176.07666,4164.281738,4191.974121,4242.743652,474,2047,2045,0,0,0,1193,323,2,3,4,4,3,3,1,3,4,4,3,4,4,4,4,4
82,0,4238.641113,4256.589844,4258.12793,4249.410156,4254.025391,4251.461426,4248.897461,4254.538574,4245.307617,4241.717773,4251.461426,4235.563965,4256.07666,4307.358887,298,2046,2045,0,0,0,1193,331,2,3,4,4,3,3,1,3,4,4,3,4,4,4,4,4
83,0,4173.102539,4192.589844,4190.538574,4183.871582,4191.563965,4190.538574,4174.12793,4187.974121,4181.820313,4176.179199,4184.897461,4162.846191,4191.05127,4237.717773,576,2048,2046,0,0,0,1193,339,2,3,4,4,3,3,1,3,4,4,3,4,4,4,4,4
84,0,4135.794922,4152.205078,4149.641113,4141.436035,4152.205078,4149.641113,4124.512695,4147.589844,4148.615234,4146.05127,4151.692383,4130.153809,4151.179199,4201.94873,935,2047,2047,0,0,0,1193,348,2,3,4,4,3,3,1,3,4,4,3,4,4,4,4,4
85,0,4127.846191,4144.256348,4142.205078,4129.384277,4140.666504,4139.641113,4121.179199,4144.256348,4149.897461,4148.358887,4152.974121,4124.256348,4142.717773,4198.102539,474,2046,2046,0,0,0,1193,356,2,3,4,4,3,3,1,3,4,4,3,4,4,4,4,4
86,0,4210.281738,4230.794922,4225.666504,4213.358887,4225.666504,4226.692383,4206.179199,4226.692383,4231.820313,4227.717773,4234.897461,4204.12793,4226.179199,4279.512695,298,2045,2045,0,0,0,1193,363,2,3,4,4,3,3,1,3,4,4,3,4,4,4,4,4
87,0,4099.846191,4115.743652,4110.102539,4102.410156,4112.153809,4112.666504,4086.512695,4109.589844,4111.12793,4107.538574,4113.179199,4093.179199,4111.641113,4162.410156,576,2043,2043,0,0,0,1193,371,2,3,4,4,3,3,1,3,4,4,3,4,4,4,4,4
88,0,4209.717773,4222.538574,4220.487305,4213.820313,4223.05127,4221.512695,4202.025391,4221,4214.846191,4210.743652,4214.333008,4195.871582,4217.922852,4268.692383,935,2045,2044,0,0,0,1193,379,2,3,4,4,3,3,1,3,4,4,3,4,4,4,4,4
89,0,4092.769043,4104.563965,4106.102539,4094.307617,4103.025391,4099.436035,4085.589844,4104.05127,4100.461426,4094.307617,4102.512695,4082,4102.512695,4154.820313,474,2043,2043,0,0,0,1193,386,2,3,4,4,3,3,1,3,4,4,3,4,4,4,4,4
90,0,4090.717773,4111.230469,4107.641113,4092.769043,4105.07666,4102.512695,4090.717773,4103.538574,4102.512695,4098.922852,4102.512695,4078.410156,4107.641113,4150.717773,298,2042,2045,0,0,0,1193,395,2,3,4,4,3,3,1,3,4,4,3,4,4,4,4,4
