title:01,recorded:12.04.19 10:33.00,sampling:128,subject:06,labels:COUNTER INTERPOLATED AF3 F7 F3 FC5 T7 P7 O1 O2 P8 T8 FC6 F4 F8 AF4 RAW_CQ GYROX GYROY MARKER MARKER_HARDWARE SYNC TIME_STAMP_s TIME_STAMP_ms CQ_AF3 CQ_F7 CQ_F3 CQ_FC5 CQ_T7 CQ_P7 CQ_O1 CQ_O2 CQ_P8 CQ_T8 CQ_FC6 CQ_F4 CQ_F8 CQ_AF4 CQ_CMS CQ_DRL,chan:40,units:emotiv,,,,,,,,,,,,,,,,,,,,,,,,,,,,,,,,,
85,0,4271.692383,4296.307617,4288.615234,4271.692383,4295.281738,4296.307617,4266.05127,4280.922852,4273.230469,4269.641113,4273.230469,4259.897461,4284.512695,4273.743652,472,2045,2049,0,0,0,1189,296,0,0,0,0,0,0,0,0,0,0,0,0,0,0,0,0
86,0,4265.230469,4288.820313,4283.179199,4264.717773,4287.281738,4287.794922,4259.07666,4273.436035,4265.230469,4257.538574,4265.230469,4251.897461,4281.641113,4264.205078,298,2046,2046,0,0,0,1189,304,0,0,0,0,0,0,0,0,0,0,0,0,0,0,0,0
87,0,4148.205078,4170.256348,4167.179199,4156.410156,4170.769043,4172.820313,4146.153809,4157.436035,4144.615234,4141.538574,4144.102539,4129.743652,4164.615234,4145.12793,560,2045,2046,0,0,0,1189,312,0,0,0,0,0,0,0,0,0,0,0,0,0,0,0,0
88,0,4242.871582,4259.281738,4255.179199,4246.461426,4258.769043,4259.794922,4233.12793,4247.487305,4238.769043,4237.230469,4235.692383,4228,4250.563965,4239.281738,933,2045,2047,0,0,0,1189,321,0,0,0,0,0,0,0,0,0,0,0,0,0,0,0,0
89,0,4156.358887,4174.307617,4170.205078,4158.410156,4175.333008,4173.281738,4143.025391,4164.05127,4158.410156,4153.794922,4154.820313,4136.358887,4160.974121,4152.769043,472,2047,2046,0,0,0,1189,329,0,0,0,0,0,0,0,0,0,0,0,0,0,0,0,0
90,0,4105.256348,4126.281738,4123.717773,4115,4127.820313,4127.307617,4093.974121,4117.05127,4109.358887,4106.794922,4111.922852,4090.384277,4118.589844,4109.358887,298,2047,2047,0,0,0,1189,337,0,0,0,0,0,0,0,0,0,0,0,0,0,0,0,0
91,0,4159,4188.743652,4177.461426,4182.07666,4187.717773,4190.794922,4162.07666,4174.897461,4161.05127,4160.538574,4163.102539,4151.307617,4180.025391,4165.666504,560,2048,2048,0,0,0,1189,346,0,0,0,0,0,0,0,0,0,0,0,0,0,0,0,0
92,0,4122.436035,4157.307617,4145,4149.615234,4159.358887,4157.820313,4130.641113,4134.743652,4118.333008,4117.307617,4118.333008,4109.102539,4139.358887,4119.871582,933,2048,2048,0,0,0,1189,354,0,0,0,0,0,0,0,0,0,0,0,0,0,0,0,0
93,0,4282.153809,4306.256348,4305.743652,4300.615234,4310.358887,4307.794922,4278.563965,4286.256348,4274.461426,4271.384277,4273.436035,4264.717773,4295.487305,4276.512695,472,2048,2047,0,0,0,1189,362,0,0,0,0,0,0,0,0,0,0,0,0,0,0,0,0
94,0,4048.102539,4070.666504,4070.666504,4069.12793,4064,4075.794922,4053.230469,4056.820313,4042.974121,4039.384277,4039.897461,4024,4063.487305,4043.487305,298,2047,2047,0,0,0,1189,371,0,0,0,0,0,0,0,0,0,0,0,0,0,0,0,0
95,0,4219.205078,4244.846191,4239.205078,4239.717773,4228.94873,4247.410156,4231,4229.461426,4218.179199,4216.641113,4219.205078,4201.769043,4233.563965,4218.179199,560,2045,2047,0,0,0,1189,379,0,0,0,0,0,0,0,0,0,0,0,0,0,0,0,0
96,0,3987.281738,4014.461426,4007.794922,4004.205078,4005.230469,4011.897461,3997.538574,3998.05127,3988.820313,3988.820313,3990.358887,3974.974121,3999.07666,3987.281738,933,2044,2045,0,0,0,1189,387,0,0,0,0,0,0,0,0,0,0,0,0,0,0,0,0
97,0,4064.256348,4091.94873,4084.256348,4086.820313,4088.358887,4089.897461,4075.025391,4075.538574,4065.281738,4061.692383,4063.743652,4045.794922,4074,4060.153809,472,2043,2047,0,0,0,1189,395,0,0,0,0,0,0,0,0,0,0,0,0,0,0,0,0
98,0,4119.333008,4144.461426,4135.230469,4141.384277,4136.256348,4143.436035,4124.461426,4127.538574,4121.384277,4117.281738,4122.922852,4104.461426,4131.641113,4118.307617,298,2041,2047,0,0,0,1189,402,0,0,0,0,0,0,0,0,0,0,0,0,0,0,0,0
99,0,4116.07666,4145.307617,4135.563965,4134.025391,4138.641113,4145.820313,4127.871582,4125.307617,4112.487305,4111.974121,4113,4096.589844,4131.974121,4113,560,2042,2047,0,0,0,1189,410,0,0,0,0,0,0,0,0,0,0,0,0,0,0,0,0
100,0,4065.025391,4092.717773,4085.538574,4077.846191,4093.230469,4094.769043,4076.820313,4071.692383,4051.692383,4051.692383,4051.692383,4044,4077.333008,4055.281738,933,2040,2046,0,0,0,1189,417,0,0,0,0,0,0,0,0,0,0,0,0,0,0,0,0
101,0,4158.692383,4182.281738,4172.538574,4174.07666,4180.743652,4183.307617,4163.307617,4165.358887,4149.974121,4147.922852,4150.487305,4140.743652,4170.487305,4151,472,2041,2044,0,0,0,1189,424,0,0,0,0,0,0,0,0,0,0,0,0,0,0,0,0
102,0,4116.12793,4141.256348,4131,4140.230469,4135.615234,4140.743652,4124.846191,4122.794922,4111,4108.436035,4109.974121,4092.538574,4128.436035,4108.94873,298,2041,2043,0,0,0,1189,432,0,0,0,0,0,0,0,0,0,0,0,0,0,0,0,0
103,0,4096.07666,4119.153809,4115.563965,4117.615234,4112.487305,4118.12793,4104.794922,4099.153809,4085.307617,4081.717773,4084.794922,4075.05127,4107.871582,4084.794922,560,2041,2042,0,0,0,1189,439,0,0,0,0,0,0,0,0,0,0,0,0,0,0,0,0
104,0,4290,4316.153809,4309.487305,4313.07666,4311.025391,4316.153809,4299.743652,4296.153809,4276.153809,4273.589844,4274.102539,4264.871582,4302.307617,4273.07666,933,2043,2042,0,0,0,1189,446,0,0,0,0,0,0,0,0,0,0,0,0,0,0,0,0
105,0,4137.666504,4162.281738,4152.538574,4164.333008,4154.07666,4159.717773,4145.358887,4142.794922,4126.897461,4124.846191,4125.871582,4113.563965,4147.922852,4121.769043,472,2045,2041,0,0,0,1189,454,0,0,0,0,0,0,0,0,0,0,0,0,0,0,0,0
106,0,4239.820313,4257.256348,4250.589844,4259.307617,4240.333008,4252.12793,4241.358887,4238.281738,4227.512695,4222.897461,4226.487305,4216.743652,4244.436035,4223.922852,298,2046,2041,0,0,0,1189,461,0,0,0,0,0,0,0,0,0,0,0,0,0,0,0,0
107,0,4142.589844,4164.641113,4157.461426,4160.538574,4145.666504,4164.12793,4150.281738,4141.05127,4113.871582,4113.358887,4112.333008,4107.717773,4145.666504,4117.461426,560,2047,2041,0,0,0,1189,468,0,0,0,0,0,0,0,0,0,0,0,0,0,0,0,0
108,0,4062.615234,4084.153809,4076.974121,4080.563965,4069.281738,4083.641113,4070.307617,4055.94873,4022.102539,4024.666504,4022.615234,4029.794922,4066.717773,4033.384277,933,2047,2040,0,0,0,1189,476,0,0,0,0,0,0,0,0,0,0,0,0,0,0,0,0
109,0,4086.743652,4106.743652,4097.512695,4104.179199,4097.512695,4102.641113,4092.384277,4080.07666,4051.871582,4052.897461,4050.846191,4053.410156,4088.281738,4058.538574,472,2049,2040,0,0,0,1189,483,0,0,0,0,0,0,0,0,0,0,0,0,0,0,0,0
110,0,4098.358887,4115.794922,4109.12793,4109.641113,4112.717773,4113.230469,4100.922852,4093.230469,4068.102539,4066.563965,4069.12793,4064.512695,4095.794922,4071.179199,298,2049,2041,0,0,0,1189,490,0,0,0,0,0,0,0,0,0,0,0,0,0,0,0,0
111,0,4235.358887,4248.179199,4244.07666,4239.461426,4245.102539,4250.230469,4236.384277,4224.589844,4195.358887,4195.358887,4195.871582,4202.025391,4233.307617,4202.538574,560,2050,2043,0,0,0,1189,498,0,0,0,0,0,0,0,0,0,0,0,0,0,0,0,0
112,0,4079.743652,4098.205078,4090.512695,4092.05127,4093.07666,4098.717773,4087.436035,4067.94873,4033.07666,4033.07666,4027.94873,4037.179199,4076.666504,4039.230469,933,2050,2041,0,0,0,1189,505,0,0,0,0,0,0,0,0,0,0,0,0,0,0,0,0
113,0,4163.436035,4181.384277,4173.179199,4173.692383,4174.205078,4174.205078,4163.436035,4154.205078,4122.922852,4121.897461,4123.436035,4126,4160.358887,4126.512695,472,2049,2041,0,0,0,1189,512,0,0,0,0,0,0,0,0,0,0,0,0,0,0,0,0
114,0,4185.358887,4198.179199,4192.538574,4190.487305,4194.589844,4193.05127,4183.307617,4180.743652,4150.487305,4149.974121,4152.025391,4150.487305,4185.871582,4149.974121,298,2046,2039,0,0,0,1189,520,0,0,0,0,0,0,0,0,0,0,0,0,0,0,0,0
115,0,4191.743652,4202,4200.461426,4197.897461,4203.025391,4200.974121,4195.333008,4187.12793,4156.358887,4154.820313,4153.281738,4157.384277,4191.230469,4155.333008,560,2044,2036,0,0,0,1189,527,0,0,0,0,0,0,0,0,0,0,0,0,0,0,0,0
116,0,4145.358887,4153.563965,4151.512695,4150.487305,4152.025391,4151.512695,4146.897461,4134.07666,4105.358887,4104.333008,4105.358887,4111.512695,4140.230469,4111,933,2043,2036,0,0,0,1189,534,0,0,0,0,0,0,0,0,0,0,0,0,0,0,0,0
117,0,4212.743652,4226.589844,4219.410156,4224.025391,4223.512695,4226.589844,4218.384277,4198.384277,4163.512695,4164.538574,4165.563965,4169.666504,4206.07666,4174.794922,472,2042,2036,0,0,0,1189,542,0,0,0,0,0,0,0,0,0,0,0,0,0,0,0,0
118,0,4320.820313,4333.641113,4328.512695,4326.974121,4331.07666,4332.615234,4321.846191,4301.846191,4269.025391,4268,4266.461426,4279.794922,4315.179199,4277.743652,298,2041,2036,0,0,0,1189,549,0,0,0,0,0,0,0,0,0,0,0,0,0,0,0,0
119,0,4145.820313,4158.12793,4154.025391,4146.846191,4155.563965,4154.025391,4145.820313,4129.922852,4101.717773,4099.666504,4099.153809,4105.307617,4142.230469,4105.820313,560,2038,2039,0,0,0,1189,557,0,0,0,0,0,0,0,0,0,0,0,0,0,0,0,0
120,0,4114.717773,4130.102539,4125.487305,4122.410156,4128.05127,4126,4120.358887,4103.94873,4070.102539,4070.615234,4071.641113,4071.12793,4110.615234,4080.358887,933,2036,2039,0,0,0,1189,564,0,0,0,0,0,0,0,0,0,0,0,0,0,0,0,0
121,0,4115.820313,4130.179199,4124.538574,4121.974121,4128.641113,4125.563965,4118.384277,4100.94873,4063.512695,4065.05127,4063,4073.769043,4108.12793,4078.384277,472,2036,2038,0,0,0,1189,571,0,0,0,0,0,0,0,0,0,0,0,0,0,0,0,0
122,0,4176.743652,4196.230469,4184.94873,4184.94873,4191.615234,4190.07666,4181.871582,4162.897461,4127.512695,4125.461426,4124.436035,4129.563965,4170.07666,4136.230469,298,2032,2038,0,0,0,1189,579,0,0,0,0,0,0,0,0,0,0,0,0,0,0,0,0
123,0,4142.717773,4161.692383,4152.461426,4151.436035,4148.871582,4157.589844,4148.871582,4131.436035,4098.615234,4098.102539,4101.179199,4100.666504,4140.153809,4107.333008,560,2031,2038,0,0,0,1189,586,0,0,0,0,0,0,0,0,0,0,0,0,0,0,0,0
124,0,4346.666504,4361.538574,4356.922852,4354.358887,4349.230469,4361.025391,4357.94873,4335.384277,4300,4300.512695,4298.974121,4304.102539,4343.07666,4307.179199,933,2031,2038,0,0,0,1189,593,0,0,0,0,0,0,0,0,0,0,0,0,0,0,0,0
125,0,4184.692383,4201.102539,4194.436035,4190.333008,4197,4199.05127,4198.025391,4168.794922,4131.871582,4130.846191,4127.769043,4135.461426,4176.487305,4137.512695,472,2033,2038,0,0,0,1189,601,0,0,0,0,0,0,0,0,0,0,0,0,0,0,0,0
126,0,4130.846191,4146.230469,4137,4126.230469,4142.12793,4141.102539,4135.974121,4108.794922,4072.384277,4073.410156,4076.487305,4084.179199,4121.615234,4084.692383,298,2033,2041,0,0,0,1189,608,0,0,0,0,0,0,0,0,0,0,0,0,0,0,0,0
127,0,4236.179199,4254.641113,4245.410156,4230.025391,4248.487305,4252.07666,4241.820313,4219.256348,4174.641113,4176.692383,4178.230469,4183.871582,4229,4188.487305,560,2034,2044,0,0,0,1189,615,0,0,0,0,0,0,0,0,0,0,0,0,0,0,0,0
128,0,4178.281738,4192.12793,4187,4172.641113,4189.563965,4190.07666,4172.12793,4161.358887,4128.025391,4125.974121,4127,4133.153809,4172.641113,4136.230469,933,2038,2046,0,0,0,1189,623,0,0,0,0,0,0,0,0,0,0,0,0,0,0,0,0
0,0,4045.436035,4057.230469,4049.025391,4039.794922,4052.615234,4049.538574,4034.666504,4029.025391,4008.512695,4007.487305,4009.538574,4004.410156,4042.358887,4012.615234,271,2040,2046,0,0,0,1189,630,2,0,0,0,0,0,0,0,0,0,0,0,0,0,0,0
1,0,4165.871582,4181.769043,4169.461426,4160.743652,4174.589844,4171,4162.281738,4154.589844,4121.769043,4124.846191,4126.384277,4116.12793,4158.692383,4130.487305,315,2039,2047,0,0,0,1189,637,2,3,0,0,0,0,0,0,0,0,0,0,0,0,0,0
2,0,4259.436035,4271.743652,4262.512695,4249.692383,4266.102539,4263.025391,4247.12793,4245.07666,4211.743652,4212.256348,4215.846191,4218.922852,4251.230469,4224.563965,405,2042,2048,0,0,0,1189,645,2,3,4,0,0,0,0,0,0,0,0,0,0,0,4,0
3,0,4015.897461,4031.281738,4020,4007.179199,4024.615234,4021.025391,4005.641113,4003.07666,3978.461426,3977.436035,3978.974121,3978.461426,4011.281738,3982.563965,435,2043,2046,0,0,0,1189,652,2,3,4,4,0,0,0,0,0,0,0,0,0,0,4,4
4,0,4172.538574,4185.871582,4173.563965,4162.794922,4178.692383,4174.07666,4167.922852,4160.743652,4138.179199,4141.769043,4142.281738,4135.615234,4164.846191,4141.256348,345,2045,2047,0,0,0,1189,659,2,3,4,4,3,0,0,0,0,0,0,0,0,0,4,4
5,0,4192.538574,4203.820313,4194.589844,4184.333008,4197.666504,4198.179199,4189.461426,4181.769043,4161.256348,4163.307617,4166.384277,4159.717773,4183.820313,4166.897461,391,2046,2047,0,0,0,1189,667,2,3,4,4,3,3,0,0,0,0,0,0,0,0,4,4
6,0,4276.410156,4292.307617,4284.615234,4270.769043,4285.641113,4289.230469,4277.436035,4266.153809,4246.153809,4243.589844,4247.692383,4238.974121,4268.717773,4251.794922,99,2045,2043,0,0,0,1189,674,2,3,4,4,3,3,1,0,0,0,0,0,0,0,4,4
7,0,4222.12793,4229.820313,4222.641113,4208.281738,4222.641113,4224.179199,4215.974121,4204.692383,4185.717773,4184.692383,4187.769043,4184.179199,4211.358887,4195.461426,343,2046,2042,0,0,0,1189,682,2,3,4,4,3,3,1,3,0,0,0,0,0,0,4,4
8,0,4234.07666,4242.794922,4230.487305,4224.333008,4238.692383,4238.179199,4229.974121,4219.717773,4197.153809,4200.743652,4197.666504,4190.487305,4224.846191,4207.410156,884,2047,2043,0,0,0,1189,689,2,3,4,4,3,3,1,3,4,0,0,0,0,0,4,4
9,0,4193.05127,4204.846191,4194.07666,4186.384277,4199.717773,4198.692383,4190.487305,4180.230469,4159.717773,4164.333008,4163.820313,4150.487305,4186.384277,4172.538574,853,2047,2043,0,0,0,1189,696,2,3,4,4,3,3,1,3,4,4,0,0,0,0,4,4
10,0,4227.102539,4234.281738,4227.615234,4216.333008,4226.589844,4225.563965,4220.94873,4210.179199,4190.692383,4194.281738,4196.846191,4188.641113,4218.384277,4209.153809,300,2047,2042,0,0,0,1189,705,2,3,4,4,3,3,1,3,4,4,3,0,0,0,4,4
11,0,4064.922852,4077.230469,4064.410156,4062.358887,4071.07666,4071.07666,4065.94873,4049.538574,4019.794922,4023.384277,4022.871582,4019.794922,4052.615234,4039.281738,565,2048,2043,0,0,0,1189,713,2,3,4,4,3,3,1,3,4,4,3,4,0,0,4,4
12,0,4049.025391,4058.769043,4043.384277,4044.410156,4052.102539,4053.12793,4044.410156,4034.153809,4002.871582,4006.461426,4008,4006.974121,4036.717773,4020.820313,938,2048,2042,0,0,0,1189,721,2,3,4,4,3,3,1,3,4,4,3,4,4,0,4,4
13,0,4296.102539,4302.769043,4289.94873,4287.897461,4295.07666,4292.512695,4287.897461,4283.281738,4263.281738,4264.307617,4266.358887,4255.07666,4283.794922,4274.05127,473,2047,2045,0,0,0,1189,730,2,3,4,4,3,3,1,3,4,4,3,4,4,4,4,4
14,0,4226.743652,4229.820313,4219.563965,4216.487305,4223.153809,4219.05127,4216.487305,4207.769043,4198.025391,4198.025391,4201.102539,4184.179199,4209.307617,4208.281738,300,2047,2047,0,0,0,1189,738,2,3,4,4,3,3,1,3,4,4,3,4,4,4,4,4
15,0,4284.820313,4283.281738,4273.538574,4273.538574,4275.07666,4277.12793,4272.512695,4262.256348,4249.436035,4248.922852,4255.07666,4240.717773,4266.871582,4264.820313,565,2049,2046,0,0,0,1189,746,2,3,4,4,3,3,1,3,4,4,3,4,4,4,4,4
16,0,4106.102539,4109.692383,4098.922852,4100.461426,4100.461426,4104.05127,4103.538574,4090.205078,4068.666504,4067.641113,4071.743652,4057.384277,4090.717773,4083.538574,0,2048,2046,0,0,0,1189,755,2,3,4,4,3,3,1,3,4,4,3,4,4,4,4,4
17,0,4006.666504,4010.769043,3998.974121,3993.846191,4001.538574,3999.487305,4000.512695,3987.179199,3969.230469,3970.769043,3973.846191,3967.179199,3989.230469,3984.615234,0,2047,2045,0,0,0,1189,763,2,3,4,4,3,3,1,3,4,4,3,4,4,4,4,4
18,0,4373.743652,4376.820313,4361.94873,4359.384277,4367.07666,4366.563965,4362.461426,4353.743652,4339.897461,4343.487305,4345.025391,4335.281738,4356.307617,4351.179199,0,2047,2045,0,0,0,1189,771,2,3,4,4,3,3,1,3,4,4,3,4,4,4,4,4
19,0,4284.769043,4286.820313,4275.025391,4278.102539,4279.12793,4281.179199,4273.487305,4271.436035,4259.12793,4257.07666,4261.692383,4245.281738,4271.94873,4264.769043,0,2046,2047,0,0,0,1189,780,2,3,4,4,3,3,1,3,4,4,3,4,4,4,4,4
20,0,4168.820313,4167.794922,4159.589844,4157.538574,4161.12793,4162.666504,4153.436035,4151.384277,4138.05127,4136,4142.153809,4130.871582,4156,4149.846191,0,2046,2047,0,0,0,1189,788,2,3,4,4,3,3,1,3,4,4,3,4,4,4,4,4
21,0,4259.743652,4259.743652,4250.512695,4242.307617,4254.615234,4251.538574,4245.384277,4237.179199,4214.102539,4219.743652,4222.820313,4211.538574,4240.256348,4237.692383,0,2045,2045,0,0,0,1189,796,2,3,4,4,3,3,1,3,4,4,3,4,4,4,4,4
22,0,4181.820313,4176.179199,4170.025391,4162.333008,4171.563965,4169.512695,4165.410156,4155.666504,4135.153809,4134.641113,4141.820313,4133.615234,4160.794922,4160.794922,0,2043,2045,0,0,0,1189,805,2,3,4,4,3,3,1,3,4,4,3,4,4,4,4,4
23,0,4351.230469,4344.563965,4337.897461,4338.410156,4339.94873,4338.922852,4340.461426,4325.07666,4306.102539,4298.922852,4306.102539,4300.974121,4332.256348,4326.615234,0,2043,2046,0,0,0,1189,813,2,3,4,4,3,3,1,3,4,4,3,4,4,4,4,4
24,0,4098.769043,4093.12793,4081.333008,4086.974121,4090.05127,4085.94873,4086.461426,4069.025391,4040.820313,4042.871582,4046.974121,4043.384277,4074.153809,4065.436035,0,2041,2046,0,0,0,1189,821,2,3,4,4,3,3,1,3,4,4,3,4,4,4,4,4
25,0,4351.487305,4341.230469,4328.922852,4330.461426,4334.05127,4332.512695,4330.974121,4319.179199,4291.487305,4299.692383,4301.230469,4300.205078,4322.769043,4320.205078,0,2041,2047,0,0,0,1189,830,2,3,4,4,3,3,1,3,4,4,3,4,4,4,4,4
26,0,4164.846191,4159.717773,4143.820313,4149.974121,4146.384277,4149.974121,4152.538574,4140.743652,4120.230469,4122.281738,4123.307617,4111.512695,4141.769043,4140.743652,0,2038,2045,0,0,0,1189,838,2,3,4,4,3,3,1,3,4,4,3,4,4,4,4,4
27,0,4131.897461,4128.307617,4112.410156,4118.05127,4109.333008,4119.589844,4118.05127,4108.820313,4098.05127,4093.94873,4103.692383,4087.281738,4115.487305,4112.922852,0,2037,2046,0,0,0,1189,847,2,3,4,4,3,3,1,3,4,4,3,4,4,4,4,4
28,0,4181.974121,4177.358887,4164.025391,4159.922852,4161.974121,4172.230469,4169.666504,4156.846191,4148.12793,4146.07666,4153.769043,4138.384277,4163.512695,4160.436035,0,2037,2046,0,0,0,1189,855,2,3,4,4,3,3,1,3,4,4,3,4,4,4,4,4
29,0,4318.358887,4316.820313,4306.05127,4298.358887,4311.692383,4312.205078,4311.179199,4293.230469,4282.974121,4285.025391,4285.025391,4271.692383,4297.846191,4297.846191,0,2038,2044,0,0,0,1189,863,2,3,4,4,3,3,1,3,4,4,3,4,4,4,4,4
30,0,4240.333008,4239.820313,4228.538574,4220.846191,4233.666504,4232.641113,4228.025391,4216.230469,4210.589844,4212.12793,4216.743652,4204.436035,4224.94873,4227,0,2036,2045,0,0,0,1189,872,2,3,4,4,3,3,1,3,4,4,3,4,4,4,4,4
31,0,4106.769043,4110.871582,4095.487305,4086.256348,4099.07666,4105.230469,4101.641113,4087.794922,4076.512695,4075.487305,4085.230469,4066.256348,4092.922852,4091.897461,0,2036,2046,0,0,0,1189,880,2,3,4,4,3,3,1,3,4,4,3,4,4,4,4,4
32,0,4153.871582,4154.897461,4144.641113,4131.820313,4146.179199,4149.256348,4147.717773,4130.281738,4112.846191,4114.384277,4121.05127,4110.281738,4135.922852,4134.384277,0,2034,2045,0,0,0,1189,888,2,3,4,4,3,3,1,3,4,4,3,4,4,4,4,4
33,0,4079.281738,4078.769043,4070.05127,4061.846191,4075.692383,4071.07666,4072.102539,4053.641113,4035.179199,4039.794922,4039.281738,4036.205078,4064.410156,4059.794922,0,2034,2046,0,0,0,1189,897,2,3,4,4,3,3,1,3,4,4,3,4,4,4,4,4
34,0,4246.256348,4246.769043,4232.922852,4230.358887,4241.12793,4241.12793,4240.102539,4221.641113,4202.666504,4204.717773,4205.743652,4194.461426,4228.307617,4226.256348,0,2036,2045,0,0,0,1189,905,2,3,4,4,3,3,1,3,4,4,3,4,4,4,4,4
35,0,4187.615234,4179.410156,4167.615234,4165.563965,4168.12793,4175.307617,4168.12793,4154.794922,4141.974121,4139.922852,4147.102539,4136.846191,4160.94873,4167.102539,0,2036,2043,0,0,0,1189,913,2,3,4,4,3,3,1,3,4,4,3,4,4,4,4,4
36,0,4172.07666,4165.410156,4154.12793,4153.102539,4156.179199,4160.794922,4155.666504,4139.256348,4124.384277,4122.846191,4128.487305,4120.281738,4144.897461,4146.94873,0,2036,2045,0,0,0,1189,922,2,3,4,4,3,3,1,3,4,4,3,4,4,4,4,4
37,0,4250.487305,4246.897461,4232.538574,4227.410156,4239.205078,4240.230469,4241.256348,4219.205078,4201.256348,4202.281738,4207.410156,4199.717773,4223.307617,4225.358887,0,2038,2045,0,0,0,1189,930,2,3,4,4,3,3,1,3,4,4,3,4,4,4,4,4
38,0,4217.538574,4209.846191,4196,4187.281738,4200.102539,4205.230469,4204.205078,4183.692383,4167.794922,4166.769043,4172.410156,4164.205078,4187.281738,4193.436035,0,2039,2045,0,0,0,1189,938,2,3,4,4,3,3,1,3,4,4,3,4,4,4,4,4
39,0,4191.05127,4180.794922,4170.025391,4165.410156,4173.615234,4179.769043,4174.641113,4155.666504,4133.615234,4133.102539,4138.230469,4129.512695,4158.743652,4160.281738,0,2041,2045,0,0,0,1189,947,2,3,4,4,3,3,1,3,4,4,3,4,4,4,4,4
40,0,4216.12793,4204.846191,4189.974121,4188.436035,4194.589844,4200.743652,4196.641113,4174.589844,4152.025391,4153.563965,4159.717773,4156.641113,4183.307617,4183.820313,0,2043,2046,0,0,0,1189,955,2,3,4,4,3,3,1,3,4,4,3,4,4,4,4,4
41,0,4097.436035,4093.846191,4072.820313,4071.794922,4083.07666,4086.666504,4080.512695,4058.974121,4035.897461,4037.436035,4040.512695,4038.461426,4066.666504,4064.615234,0,2045,2046,0,0,0,1189,963,2,3,4,4,3,3,1,3,4,4,3,4,4,4,4,4
42,0,4103.436035,4099.333008,4085.487305,4078.820313,4087.025391,4094.717773,4083.94873,4071.641113,4047.025391,4047.025391,4050.102539,4049.589844,4073.692383,4067.538574,0,2045,2047,0,0,0,1189,972,2,3,4,4,3,3,1,3,4,4,3,4,4,4,4,4
43,0,4047.589844,4036.820313,4027.07666,4018.358887,4017.333008,4033.230469,4025.538574,4013.230469,3989.12793,3990.666504,3995.794922,3992.205078,4015.794922,4011.179199,0,2046,2046,0,0,0,1189,980,2,3,4,4,3,3,1,3,4,4,3,4,4,4,4,4
44,0,4140.102539,4131.897461,4115.487305,4112.410156,4110.871582,4126.256348,4120.615234,4099.589844,4074.974121,4077.025391,4081.641113,4075.487305,4102.666504,4101.12793,0,2045,2047,0,0,0,1189,988,2,3,4,4,3,3,1,3,4,4,3,4,4,4,4,4
45,0,4189.615234,4181.922852,4167.05127,4162.436035,4162.94873,4175.256348,4168.589844,4151.666504,4131.666504,4129.615234,4133.205078,4135.769043,4155.256348,4154.743652,0,2045,2047,0,0,0,1189,997,2,3,4,4,3,3,1,3,4,4,3,4,4,4,4,4
46,0,4295.384277,4293.333008,4278.461426,4276.410156,4277.436035,4285.12793,4286.153809,4271.281738,4249.743652,4247.692383,4249.743652,4246.153809,4271.281738,4267.692383,0,2046,2047,0,0,0,1190,5,2,3,4,4,3,3,1,3,4,4,3,4,4,4,4,4
47,0,4152.897461,4152.897461,4134.436035,4134.94873,4141.615234,4142.641113,4149.820313,4126.230469,4108.794922,4108.794922,4115.974121,4102.641113,4129.307617,4128.281738,0,2048,2049,0,0,0,1190,13,2,3,4,4,3,3,1,3,4,4,3,4,4,4,4,4
48,0,4202.538574,4196.897461,4178.94873,4176.384277,4188.692383,4188.179199,4191.256348,4166.12793,4153.307617,4152.281738,4161,4151.769043,4174.333008,4172.794922,0,2047,2048,0,0,0,1190,22,2,3,4,4,3,3,1,3,4,4,3,4,4,4,4,4
49,0,4163.307617,4161.769043,4144.846191,4145.358887,4155.615234,4159.205078,4156.12793,4137.666504,4112.025391,4109.461426,4114.07666,4110.487305,4138.692383,4130.487305,0,2046,2049,0,0,0,1190,30,2,3,4,4,3,3,1,3,4,4,3,4,4,4,4,4
50,0,4166.922852,4168.974121,4150.512695,4153.589844,4158.717773,4162.307617,4156.666504,4141.794922,4123.333008,4121.794922,4128.974121,4122.820313,4145.384277,4141.794922,0,2047,2049,0,0,0,1190,39,2,3,4,4,3,3,1,3,4,4,3,4,4,4,4,4
51,0,4211.102539,4213.153809,4192.641113,4192.12793,4203.922852,4202.897461,4195.717773,4181.358887,4181.358887,4181.358887,4188.025391,4165.461426,4185.461426,4190.589844,0,2046,2048,0,0,0,1190,46,2,3,4,4,3,3,1,3,4,4,3,4,4,4,4,4
52,0,4188.07666,4188.07666,4173.205078,4166.025391,4179.358887,4181.410156,4170.641113,4162.436035,4158.846191,4157.820313,4162.436035,4141.410156,4160.897461,4166.538574,0,2044,2046,0,0,0,1190,53,2,3,4,4,3,3,1,3,4,4,3,4,4,4,4,4
53,0,4347.07666,4342.461426,4331.179199,4321.94873,4335.794922,4338.358887,4320.410156,4319.897461,4306.05127,4304.512695,4309.12793,4303.487305,4320.410156,4319.897461,0,2044,2045,0,0,0,1190,61,2,3,4,4,3,3,1,3,4,4,3,4,4,4,4,4
54,0,4209.922852,4213,4195.563965,4192.487305,4210.94873,4205.307617,4190.94873,4182.743652,4168.897461,4169.410156,4174.025391,4161.717773,4183.769043,4181.717773,0,2044,2041,0,0,0,1190,68,2,3,4,4,3,3,1,3,4,4,3,4,4,4,4,4
55,0,4217.410156,4221,4203.563965,4207.153809,4207.666504,4213.820313,4208.179199,4193.307617,4184.07666,4185.102539,4191.256348,4175.871582,4196.897461,4194.846191,0,2044,2042,0,0,0,1190,75,2,3,4,4,3,3,1,3,4,4,3,4,4,4,4,4
56,0,4135.743652,4140.358887,4124.461426,4128.563965,4118.307617,4137.794922,4134.205078,4116.256348,4102.410156,4102.410156,4103.436035,4091.641113,4118.820313,4109.07666,0,2043,2040,0,0,0,1190,83,2,3,4,4,3,3,1,3,4,4,3,4,4,4,4,4
57,0,4225.692383,4234.922852,4218.512695,4218.512695,4222.615234,4228.769043,4225.692383,4204.153809,4187.230469,4186.205078,4189.281738,4178,4203.12793,4195.436035,0,2044,2041,0,0,0,1190,90,2,3,4,4,3,3,1,3,4,4,3,4,4,4,4,4
58,0,4133.897461,4140.05127,4123.12793,4126.205078,4132.358887,4131.846191,4127.743652,4111.846191,4103.641113,4102.102539,4108.769043,4096.461426,4112.871582,4113.897461,0,2045,2041,0,0,0,1190,97,2,3,4,4,3,3,1,3,4,4,3,4,4,4,4,4
59,0,4133.333008,4142.563965,4122.563965,4128.717773,4130.256348,4135.897461,4133.333008,4116.922852,4114.358887,4113.333008,4115.384277,4094.871582,4120,4115.897461,0,2045,2044,0,0,0,1190,105,2,3,4,4,3,3,1,3,4,4,3,4,4,4,4,4
60,0,4261.794922,4269.487305,4253.07666,4252.563965,4260.769043,4263.333008,4262.307617,4242.820313,4239.743652,4241.794922,4243.333008,4226.922852,4247.436035,4241.794922,0,2044,2044,0,0,0,1190,112,2,3,4,4,3,3,1,3,4,4,3,4,4,4,4,4
61,0,4186.641113,4194.333008,4179.974121,4180.487305,4193.307617,4192.281738,4190.230469,4171.769043,4162.025391,4163.563965,4167.666504,4153.307617,4172.794922,4167.666504,0,2045,2046,0,0,0,1190,119,2,3,4,4,3,3,1,3,4,4,3,4,4,4,4,4
62,0,4170.641113,4180.897461,4163.461426,4168.07666,4178.333008,4180.897461,4174.743652,4156.281738,4149.102539,4148.07666,4151.153809,4134.230469,4158.846191,4150.12793,0,2045,2045,0,0,0,1190,127,2,3,4,4,3,3,1,3,4,4,3,4,4,4,4,4
63,0,4264.230469,4276.025391,4256.025391,4256.538574,4268.333008,4269.871582,4266.281738,4244.230469,4244.743652,4244.230469,4245.769043,4236.538574,4253.974121,4243.717773,0,2045,2043,0,0,0,1190,134,2,3,4,4,3,3,1,3,4,4,3,4,4,4,4,4
64,0,4092.538574,4110.487305,4090.487305,4091,4102.281738,4101.256348,4103.820313,4081.256348,4072.538574,4072.025391,4070.487305,4058.179199,4084.846191,4069.974121,271,2045,2044,0,0,0,1190,141,2,3,4,4,3,3,1,3,4,4,3,4,4,4,4,4
65,0,4095.179199,4105.94873,4091.589844,4090.05127,4102.358887,4101.846191,4100.307617,4088,4080.307617,4079.281738,4081.333008,4061.333008,4087.487305,4076.205078,315,2047,2044,0,0,0,1190,149,2,3,4,4,3,3,1,3,4,4,3,4,4,4,4,4
66,0,4202.743652,4210.94873,4194.538574,4188.897461,4204.794922,4206.846191,4202.230469,4194.025391,4196.589844,4197.102539,4202.230469,4176.07666,4196.07666,4189.410156,404,2047,2045,0,0,0,1190,156,2,3,4,4,3,3,1,3,4,4,3,4,4,4,4,4
67,0,4087.589844,4099.897461,4081.436035,4072.717773,4089.641113,4093.230469,4092.717773,4077.333008,4069.12793,4071.692383,4073.743652,4053.743652,4078.871582,4068.615234,436,2047,2044,0,0,0,1190,163,2,3,4,4,3,3,1,3,4,4,3,4,4,4,4,4
68,0,4118.692383,4121.769043,4111,4095.615234,4114.589844,4118.692383,4122.281738,4100.230469,4085.871582,4086.384277,4086.384277,4078.692383,4104.846191,4089.974121,345,2046,2043,0,0,0,1190,171,2,3,4,4,3,3,1,3,4,4,3,4,4,4,4,4
69,0,4124.641113,4130.281738,4120.025391,4103.615234,4123.615234,4129.256348,4129.256348,4109.769043,4097.974121,4099.512695,4099.512695,4085.153809,4112.333008,4098.487305,391,2047,2043,0,0,0,1190,178,2,3,4,4,3,3,1,3,4,4,3,4,4,4,4,4
70,0,4204.641113,4214.897461,4202.589844,4185.666504,4207.205078,4208.230469,4202.07666,4193.358887,4181.05127,4185.666504,4188.230469,4174.897461,4195.922852,4186.179199,98,2044,2042,0,0,0,1190,186,2,3,4,4,3,3,1,3,4,4,3,4,4,4,4,4
71,0,4188.12793,4194.794922,4182.487305,4161.974121,4187.615234,4183,4185.05127,4173.769043,4158.384277,4161.461426,4161.974121,4155.820313,4178.384277,4167.615234,343,2044,2042,0,0,0,1190,193,2,3,4,4,3,3,1,3,4,4,3,4,4,4,4,4
72,0,4093.589844,4099.743652,4087.94873,4068.461426,4091.538574,4090.512695,4097.692383,4083.333008,4071.538574,4071.538574,4071.025391,4057.179199,4083.333008,4074.102539,884,2043,2044,0,0,0,1190,200,2,3,4,4,3,3,1,3,4,4,3,4,4,4,4,4
73,0,4055.743652,4060.358887,4049.07666,4036.256348,4051.12793,4053.692383,4052.666504,4047.538574,4046,4046.512695,4050.102539,4030.615234,4049.07666,4043.94873,852,2043,2044,0,0,0,1190,208,2,3,4,4,3,3,1,3,4,4,3,4,4,4,4,4
74,0,4128.641113,4138.897461,4123.512695,4120.94873,4131.717773,4132.230469,4130.179199,4121.974121,4117.358887,4120.94873,4121.461426,4097.358887,4122.487305,4114.794922,300,2041,2045,0,0,0,1190,215,2,3,4,4,3,3,1,3,4,4,3,4,4,4,4,4
75,0,4008.615234,4018.871582,4006.05127,4000.922852,4015.794922,4013.230469,4014.769043,4001.94873,3997.333008,3999.897461,4001.436035,3976.820313,4001.94873,3994.769043,578,2041,2046,0,0,0,1190,222,2,3,4,4,3,3,1,3,4,4,3,4,4,4,4,4
76,0,4077.692383,4081.281738,4071.538574,4061.281738,4077.179199,4080.256348,4080.769043,4067.436035,4070.512695,4070,4072.563965,4048.974121,4071.538574,4065.384277,935,2041,2046,0,0,0,1190,230,2,3,4,4,3,3,1,3,4,4,3,4,4,4,4,4
77,0,4301.641113,4306.769043,4293.436035,4288.820313,4301.12793,4305.743652,4303.692383,4288.307617,4285.230469,4285.743652,4286.256348,4265.743652,4290.358887,4283.692383,475,2041,2046,0,0,0,1190,237,2,3,4,4,3,3,1,3,4,4,3,4,4,4,4,4
78,0,4135.769043,4136.794922,4122.436035,4121.922852,4131.666504,4128.589844,4128.07666,4117.820313,4109.615234,4111.153809,4114.743652,4100.897461,4121.410156,4117.307617,300,2043,2045,0,0,0,1190,244,2,3,4,4,3,3,1,3,4,4,3,4,4,4,4,4
79,0,4084.153809,4089.281738,4074.410156,4074.922852,4083.12793,4081.07666,4081.07666,4073.897461,4068.256348,4067.743652,4071.333008,4051.846191,4078,4071.846191,578,2042,2043,0,0,0,1190,252,2,3,4,4,3,3,1,3,4,4,3,4,4,4,4,4
80,0,4286.717773,4291.846191,4281.589844,4277.487305,4283.12793,4287.230469,4287.743652,4276.461426,4280.563965,4279.538574,4282.102539,4258.512695,4281.589844,4275.94873,935,2041,2041,0,0,0,1190,259,2,3,4,4,3,3,1,3,4,4,3,4,4,4,4,4
81,0,4231.871582,4231.358887,4223.153809,4210.846191,4224.179199,4225.205078,4228.794922,4213.922852,4219.05127,4220.07666,4220.589844,4200.589844,4220.589844,4218.538574,475,2040,2042,0,0,0,1190,266,2,3,4,4,3,3,1,3,4,4,3,4,4,4,4,4
82,0,4309.692383,4315.846191,4300.974121,4287.641113,4314.307617,4309.692383,4311.230469,4296.358887,4289.179199,4292.769043,4289.692383,4269.692383,4300.974121,4294.820313,300,2041,2043,0,0,0,1190,274,2,3,4,4,3,3,1,3,4,4,3,4,4,4,4,4
83,0,4060.153809,4066.820313,4054,4042.717773,4062.205078,4060.666504,4059.641113,4049.384277,4039.641113,4043.743652,4043.743652,4027.333008,4056.05127,4046.307617,578,2041,2044,0,0,0,1190,282,2,3,4,4,3,3,1,3,4,4,3,4,4,4,4,4
84,0,4331.025391,4337.179199,4328.974121,4318.717773,4330,4330.512695,4333.589844,4322.820313,4312.05127,4314.102539,4314.102539,4297.179199,4324.871582,4316.666504,935,2043,2043,0,0,0,1190,290,2,3,4,4,3,3,1,3,4,4,3,4,4,4,4,4
85,0,4167.461426,4176.692383,4168.487305,4154.12793,4176.692383,4171.563965,4173.102539,4162.333008,4149.512695,4150.025391,4149,4133.102539,4161.820313,4158.230469,475,2045,2045,0,0,0,1190,298,2,3,4,4,3,3,1,3,4,4,3,4,4,4,4,4
86,0,4169.461426,4179.205078,4170.487305,4155.102539,4179.717773,4173.563965,4173.05127,4165.358887,4156.12793,4158.179199,4154.07666,4141.256348,4168.94873,4164.333008,300,2045,2047,0,0,0,1190,307,2,3,4,4,3,3,1,3,4,4,3,4,4,4,4,4
87,0,4217.846191,4225.538574,4217.846191,4210.666504,4222.974121,4219.897461,4224.512695,4213.743652,4199.384277,4202.461426,4198.871582,4184,4215.794922,4205.025391,578,2047,2046,0,0,0,1190,315,2,3,4,4,3,3,1,3,4,4,3,4,4,4,4,4
88,0,4187.615234,4186.07666,4181.461426,4173.256348,4181.461426,4182.487305,4187.102539,4174.794922,4164.538574,4166.07666,4169.666504,4156.846191,4179.922852,4173.256348,935,2047,2046,0,0,0,1190,323,2,3,4,4,3,3,1,3,4,4,3,4,4,4,4,4
89,0,4135.743652,4133.179199,4128.05127,4113.692383,4129.589844,4131.12793,4134.717773,4122.922852,4120.358887,4119.846191,4124.461426,4102.922852,4126,4126.512695,475,2048,2045,0,0,0,1190,332,2,3,4,4,3,3,1,3,4,4,3,4,4,4,4,4
90,0,4287.692383,4286.153809,4282.05127,4268.717773,4285.12793,4281.025391,4285.641113,4279.487305,4274.871582,4272.820313,4276.410156,4251.794922,4273.846191,4275.384277,300,2047,2043,0,0,0,1190,340,2,3,4,4,3,3,1,3,4,4,3,4,4,4,4,4
91,0,4206.281738,4200.12793,4195,4186.281738,4197.563965,4194.487305,4195.512695,4196.025391,4195.512695,4193.974121,4196.538574,4175,4193.461426,4192.436035,578,2046,2044,0,0,0,1190,348,2,3,4,4,3,3,1,3,4,4,3,4,4,4,4,4
92,0,4201.717773,4201.717773,4191.974121,4185.820313,4195.563965,4197.615234,4199.153809,4192.487305,4197.615234,4199.153809,4198.641113,4167.358887,4194.538574,4192.487305,935,2045,2043,0,0,0,1190,357,2,3,4,4,3,3,1,3,4,4,3,4,4,4,4,4
93,0,4088.307617,4088.820313,4081.12793,4067.794922,4080.615234,4082.153809,4085.230469,4078.563965,4083.179199,4084.717773,4087.281738,4057.538574,4081.12793,4082.666504,475,2046,2043,0,0,0,1190,365,2,3,4,4,3,3,1,3,4,4,3,4,4,4,4,4
94,0,4252.384277,4247.769043,4242.641113,4220.07666,4246.230469,4240.07666,4241.615234,4243.153809,4243.153809,4240.589844,4245.205078,4217.512695,4242.12793,4243.153809,300,2043,2044,0,0,0,1190,373,2,3,4,4,3,3,1,3,4,4,3,4,4,4,4,4
95,0,4291.94873,4285.794922,4280.666504,4260.666504,4286.820313,4279.641113,4281.692383,4277.589844,4280.153809,4277.589844,4285.794922,4251.436035,4279.641113,4282.205078,578,2044,2044,0,0,0,1190,382,2,3,4,4,3,3,1,3,4,4,3,4,4,4,4,4
96,0,4172.461426,4165.794922,4159.641113,4147.333008,4158.615234,4160.666504,4166.307617,4155.025391,4162.717773,4162.717773,4172.974121,4139.12793,4161.179199,4167.333008,935,2043,2043,0,0,0,1190,390,2,3,4,4,3,3,1,3,4,4,3,4,4,4,4,4
97,0,4083.230469,4079.641113,4071.436035,4057.07666,4072.974121,4075.025391,4084.256348,4072.461426,4071.436035,4071.436035,4072.974121,4044.769043,4070.922852,4072.461426,475,2043,2044,0,0,0,1190,398,2,3,4,4,3,3,1,3,4,4,3,4,4,4,4,4
98,0,4228.897461,4218.12793,4214.538574,4185.820313,4217.615234,4212.487305,4218.641113,4215.05127,4214.538574,4213.512695,4214.538574,4189.410156,4213.512695,4211.974121,300,2043,2043,0,0,0,1190,407,2,3,4,4,3,3,1,3,4,4,3,4,4,4,4,4
99,0,4348.563965,4333.692383,4327.538574,4303.94873,4329.07666,4326.512695,4327.025391,4329.589844,4338.307617,4337.281738,4342.922852,4309.07666,4331.12793,4330.615234,578,2043,2044,0,0,0,1190,415,2,3,4,4,3,3,1,3,4,4,3,4,4,4,4,4
100,0,4117.589844,4102.205078,4093.487305,4084.256348,4095.025391,4092.974121,4093.487305,4096.05127,4107.333008,4105.794922,4110.410156,4073.487305,4094.512695,4096.05127,935,2043,2045,0,0,0,1190,423,2,3,4,4,3,3,1,3,4,4,3,4,4,4,4,4
101,0,4093.794922,4069.692383,4064.563965,4055.333008,4065.589844,4059.94873,4061.487305,4068.666504,4084.05127,4081.487305,4085.07666,4053.794922,4068.666504,4073.794922,475,2045,2044,0,0,0,1190,432,2,3,4,4,3,3,1,3,4,4,3,4,4,4,4,4
102,0,4338.205078,4318.205078,4311.025391,4301.281738,4312.05127,4310.512695,4308.974121,4317.692383,4334.615234,4333.07666,4334.615234,4296.666504,4318.205078,4320.256348,300,2044,2045,0,0,0,1190,440,2,3,4,4,3,3,1,3,4,4,3,4,4,4,4,4
103,0,4168.666504,4154.820313,4147.12793,4129.692383,4136.358887,4147.12793,4141.487305,4147.641113,4162,4162.512695,4166.102539,4129.692383,4148.666504,4150.205078,578,2045,2044,0,0,0,1190,449,2,3,4,4,3,3,1,3,4,4,3,4,4,4,4,4
104,0,4158.179199,4142.281738,4136.12793,4112.538574,4121.256348,4132.538574,4134.589844,4133.05127,4142.794922,4143.820313,4147.410156,4114.589844,4134.589844,4137.153809,935,2045,2044,0,0,0,1190,457,2,3,4,4,3,3,1,3,4,4,3,4,4,4,4,4
105,0,4150.641113,4132.692383,4127.05127,4112.692383,4126.025391,4123.974121,4133.717773,4129.102539,4138.846191,4138.846191,4139.358887,4102.94873,4129.102539,4128.589844,475,2045,2043,0,0,0,1190,465,2,3,4,4,3,3,1,3,4,4,3,4,4,4,4,4
106,0,4259.717773,4237.153809,4235.102539,4228.436035,4235.615234,4231,4233.563965,4237.666504,4253.05127,4252.538574,4255.102539,4222.794922,4242.281738,4239.205078,300,2045,2042,0,0,0,1190,474,2,3,4,4,3,3,1,3,4,4,3,4,4,4,4,4
107,0,4211.102539,4194.179199,4188.538574,4185.461426,4185.974121,4188.025391,4180.333008,4187.512695,4197.256348,4196.230469,4199.307617,4167.512695,4190.589844,4186.487305,578,2047,2041,0,0,0,1190,482,2,3,4,4,3,3,1,3,4,4,3,4,4,4,4,4
108,0,4295.820313,4276.846191,4267.615234,4262.487305,4263.512695,4266.589844,4260.436035,4265.563965,4279.922852,4276.333008,4280.94873,4248.12793,4267.102539,4269.153809,935,2047,2041,0,0,0,1190,490,2,3,4,4,3,3,1,3,4,4,3,4,4,4,4,4
109,0,4198.94873,4173.307617,4167.153809,4157.410156,4159.461426,4161.512695,4162.025391,4170.743652,4193.307617,4188.692383,4191.769043,4156.384277,4173.307617,4175.871582,475,2045,2038,0,0,0,1190,499,2,3,4,4,3,3,1,3,4,4,3,4,4,4,4,4
110,0,4299.230469,4277.692383,4273.589844,4263.846191,4262.307617,4267.436035,4268.974121,4277.692383,4291.025391,4288.461426,4290.512695,4252.563965,4276.666504,4274.615234,300,2044,2037,0,0,0,1190,507,2,3,4,4,3,3,1,3,4,4,3,4,4,4,4,4
111,0,4034.871582,4009.743652,4006.153809,3997.436035,3990.256348,4002.563965,3998.974121,4006.153809,4018.974121,4017.436035,4023.07666,3989.230469,4008.717773,4009.230469,578,2043,2041,0,0,0,1190,515,2,3,4,4,3,3,1,3,4,4,3,4,4,4,4,4
112,0,4186.436035,4163.358887,4154.12793,4149.512695,4143.871582,4156.692383,4150.538574,4158.230469,4179.256348,4176.179199,4180.281738,4141.307617,4161.820313,4163.358887,935,2043,2040,0,0,0,1190,524,2,3,4,4,3,3,1,3,4,4,3,4,4,4,4,4
113,0,4393.897461,4371.846191,4365.179199,4358,4358.512695,4361.589844,4360.563965,4371.846191,4389.794922,4387.230469,4391.333008,4350.820313,4372.358887,4374.410156,475,2044,2040,0,0,0,1190,532,2,3,4,4,3,3,1,3,4,4,3,4,4,4,4,4
114,0,4237.358887,4210.692383,4209.153809,4201.461426,4203.512695,4201.461426,4203.512695,4214.281738,4225.563965,4224.025391,4230.692383,4193.256348,4213.769043,4214.281738,300,2042,2043,0,0,0,1190,540,2,3,4,4,3,3,1,3,4,4,3,4,4,4,4,4
115,0,4188.333008,4165.256348,4159.102539,4157.05127,4159.615234,4159.102539,4156.025391,4161.153809,4175,4173.461426,4180.12793,4139.615234,4160.12793,4160.641113,578,2043,2044,0,0,0,1190,548,2,3,4,4,3,3,1,3,4,4,3,4,4,4,4,4
116,0,4237.410156,4213.307617,4205.615234,4201.512695,4205.615234,4205.615234,4201.512695,4207.666504,4223.563965,4222.025391,4228.179199,4193.820313,4209.717773,4212.794922,935,2043,2043,0,0,0,1190,556,2,3,4,4,3,3,1,3,4,4,3,4,4,4,4,4
117,0,4117.179199,4096.666504,4090.512695,4083.333008,4090.512695,4086.922852,4087.94873,4095.641113,4099.230469,4098.717773,4100.769043,4069.487305,4093.589844,4091.538574,475,2041,2043,0,0,0,1190,563,2,3,4,4,3,3,1,3,4,4,3,4,4,4,4,4
118,0,4195.717773,4177.769043,4173.666504,4166.487305,4174.692383,4167.512695,4166.487305,4175.205078,4182.384277,4179.820313,4185.974121,4152.641113,4172.12793,4172.12793,300,2040,2039,0,0,0,1190,570,2,3,4,4,3,3,1,3,4,4,3,4,4,4,4,4
119,0,4198.94873,4176.897461,4172.281738,4166.12793,4168.179199,4168.179199,4161,4171.769043,4191.256348,4187.666504,4196.897461,4162.025391,4172.794922,4179.461426,578,2039,2039,0,0,0,1190,578,2,3,4,4,3,3,1,3,4,4,3,4,4,4,4,4
120,0,4145.717773,4128.794922,4122.641113,4114.94873,4109.820313,4121.615234,4114.436035,4126.230469,4139.563965,4138.538574,4143.666504,4104.179199,4124.692383,4130.846191,935,2040,2039,0,0,0,1190,585,2,3,4,4,3,3,1,3,4,4,3,4,4,4,4,4
121,0,4062.205078,4046.820313,4042.205078,4034.512695,4025.794922,4036.05127,4033.487305,4047.846191,4063.230469,4063.230469,4070.410156,4030.410156,4047.846191,4055.025391,475,2041,2040,0,0,0,1190,592,2,3,4,4,3,3,1,3,4,4,3,4,4,4,4,4
122,0,4246.743652,4231.871582,4223.666504,4231.871582,4220.07666,4218.538574,4220.589844,4233.410156,4257,4252.897461,4260.07666,4215.974121,4233.410156,4238.538574,300,2039,2042,0,0,0,1190,600,2,3,4,4,3,3,1,3,4,4,3,4,4,4,4,4
123,0,4295.692383,4281.333008,4270.563965,4293.12793,4272.102539,4269.538574,4269.025391,4283.897461,4304.410156,4298.256348,4303.897461,4260.820313,4281.846191,4284.410156,578,2041,2044,0,0,0,1190,607,2,3,4,4,3,3,1,3,4,4,3,4,4,4,4,4
124,0,4145.179199,4130.820313,4120.05127,4145.692383,4116.461426,4118,4112.358887,4132.871582,4150.820313,4149.281738,4151.846191,4115.436035,4131.846191,4139.538574,935,2042,2046,0,0,0,1190,614,2,3,4,4,3,3,1,3,4,4,3,4,4,4,4,4
125,0,4228.025391,4219.820313,4206.487305,4233.153809,4207.512695,4203.922852,4205.461426,4216.230469,4232.12793,4232.641113,4232.12793,4195.717773,4213.666504,4222.897461,475,2042,2048,0,0,0,1190,622,2,3,4,4,3,3,1,3,4,4,3,4,4,4,4,4
126,0,4259.589844,4247.281738,4238.05127,4256,4235.487305,4233.436035,4235.487305,4242.666504,4260.615234,4258.05127,4261.641113,4231.897461,4245.743652,4251.897461,300,2042,2047,0,0,0,1190,629,2,3,4,4,3,3,1,3,4,4,3,4,4,4,4,4
127,0,4156.512695,4146.256348,4138.05127,4147.794922,4132.922852,4134.461426,4129.846191,4145.743652,4160.102539,4158.05127,4162.153809,4129.846191,4149.846191,4152.410156,578,2042,2044,0,0,0,1190,636,2,3,4,4,3,3,1,3,4,4,3,4,4,4,4,4
128,0,4289.897461,4284.256348,4275.538574,4284.256348,4275.025391,4270.922852,4271.436035,4288.358887,4296.563965,4294.512695,4299.12793,4261.179199,4284.256348,4286.820313,935,2041,2042,0,0,0,1190,644,2,3,4,4,3,3,1,3,4,4,3,4,4,4,4,4
0,0,4230.846191,4223.153809,4217.512695,4224.179199,4214.436035,4211.358887,4218.025391,4229.820313,4238.538574,4234.94873,4241.102539,4206.743652,4224.179199,4227.769043,271,2042,2041,0,0,0,1190,651,2,3,4,4,3,3,1,3,4,4,3,4,4,4,4,4
1,0,4210.230469,4207.153809,4201,4211.769043,4196.897461,4198.436035,4202.538574,4211.769043,4223.05127,4221,4223.563965,4185.102539,4206.12793,4209.205078,315,2043,2041,0,0,0,1190,658,2,3,4,4,3,3,1,3,4,4,3,4,4,4,4,4
2,0,4209.461426,4205.871582,4196.12793,4217.666504,4195.102539,4193.05127,4190.487305,4209.461426,4233.563965,4231.512695,4234.589844,4194.589844,4209.461426,4215.615234,404,2043,2040,0,0,0,1190,666,2,3,4,4,3,3,1,3,4,4,3,4,4,4,4,4
3,0,4150.94873,4145.820313,4134.025391,4163.256348,4137.102539,4134.025391,4128.897461,4151.461426,4175.563965,4171.974121,4176.07666,4136.07666,4151.974121,4159.153809,436,2042,2041,0,0,0,1190,673,2,3,4,4,3,3,1,3,4,4,3,4,4,4,4,4
4,0,4150.743652,4148.179199,4139.461426,4168.179199,4141.512695,4139.974121,4138.436035,4150.743652,4163.05127,4161,4166.12793,4129.717773,4148.179199,4155.871582,345,2043,2042,0,0,0,1190,681,2,3,4,4,3,3,1,3,4,4,3,4,4,4,4,4
5,0,4313.846191,4308.717773,4299.487305,4328.205078,4297.94873,4294.871582,4299.487305,4309.230469,4325.641113,4323.07666,4329.743652,4298.974121,4311.281738,4317.436035,391,2043,2043,0,0,0,1190,688,2,3,4,4,3,3,1,3,4,4,3,4,4,4,4,4
6,0,4116.743652,4113.666504,4102.384277,4132.12793,4103.410156,4099.820313,4104.436035,4117.256348,4136.743652,4132.641113,4136.743652,4099.820313,4118.794922,4114.692383,98,2043,2044,0,0,0,1190,695,2,3,4,4,3,3,1,3,4,4,3,4,4,4,4,4
7,0,4242.666504,4241.12793,4236,4260.102539,4233.436035,4232.410156,4231.897461,4248.307617,4261.641113,4261.641113,4265.230469,4230.871582,4247.794922,4241.12793,342,2042,2043,0,0,0,1190,703,2,3,4,4,3,3,1,3,4,4,3,4,4,4,4,4
8,0,4314.153809,4315.692383,4309.025391,4331.589844,4303.897461,4305.94873,4305.94873,4319.281738,4328.512695,4329.538574,4331.07666,4302.871582,4318.256348,4315.692383,885,2042,2043,0,0,0,1190,710,2,3,4,4,3,3,1,3,4,4,3,4,4,4,4,4
9,0,4217.615234,4218.641113,4208.897461,4235.563965,4208.897461,4209.410156,4208.384277,4220.692383,4233,4227.358887,4230.94873,4200.692383,4218.641113,4214.538574,852,2043,2042,0,0,0,1190,717,2,3,4,4,3,3,1,3,4,4,3,4,4,4,4,4
10,0,4182.641113,4175.461426,4172.897461,4199.05127,4169.307617,4168.794922,4165.717773,4185.205078,4201.615234,4194.94873,4200.07666,4171.871582,4185.717773,4174.94873,300,2043,2041,0,0,0,1190,725,2,3,4,4,3,3,1,3,4,4,3,4,4,4,4,4
11,0,4173.410156,4173.410156,4169.820313,4192.384277,4165.717773,4165.717773,4167.769043,4182.12793,4191.871582,4188.794922,4187.769043,4161.102539,4181.102539,4165.717773,580,2044,2042,0,0,0,1190,733,2,3,4,4,3,3,1,3,4,4,3,4,4,4,4,4
12,0,4255.94873,4260.05127,4251.846191,4267.230469,4249.794922,4251.333008,4252.358887,4259.538574,4265.692383,4262.102539,4261.589844,4240.563965,4261.07666,4245.692383,937,2043,2042,0,0,0,1190,742,2,3,4,4,3,3,1,3,4,4,3,4,4,4,4,4
13,0,4102.512695,4102,4094.820313,4109.692383,4097.384277,4094.820313,4094.820313,4102,4105.589844,4102,4103.025391,4084.563965,4104.563965,4084.563965,474,2043,2042,0,0,0,1190,750,2,3,4,4,3,3,1,3,4,4,3,4,4,4,4,4
14,0,4155.333008,4156.871582,4152.256348,4174.820313,4157.897461,4150.717773,4155.333008,4160.974121,4158.922852,4156.358887,4155.333008,4135.846191,4158.922852,4137.897461,300,2043,2043,0,0,0,1190,759,2,3,4,4,3,3,1,3,4,4,3,4,4,4,4,4
15,0,4249,4250.025391,4243.871582,4266.436035,4244.384277,4240.281738,4241.820313,4254.641113,4257.717773,4253.615234,4254.12793,4237.205078,4253.102539,4237.717773,580,2044,2044,0,0,0,1190,767,2,3,4,4,3,3,1,3,4,4,3,4,4,4,4,4
16,0,4204.692383,4209.820313,4194.436035,4217,4197.512695,4194.94873,4189.820313,4207.769043,4219.563965,4213.410156,4215.461426,4185.717773,4207.769043,4190.333008,0,2044,2045,0,0,0,1190,775,2,3,4,4,3,3,1,3,4,4,3,4,4,4,4,4
17,0,4253.846191,4253.846191,4241.025391,4266.153809,4246.666504,4241.025391,4234.358887,4249.743652,4265.641113,4261.025391,4266.666504,4230.769043,4252.820313,4236.410156,0,2044,2042,0,0,0,1190,784,2,3,4,4,3,3,1,3,4,4,3,4,4,4,4,4
18,0,4063.333008,4053.589844,4051.025391,4075.12793,4048.974121,4045.384277,4043.846191,4056.153809,4068.461426,4064.871582,4068.974121,4042.820313,4060.769043,4046.410156,0,2044,2044,0,0,0,1190,792,2,3,4,4,3,3,1,3,4,4,3,4,4,4,4,4
19,0,4225.717773,4221.615234,4217,4237,4206.230469,4212.897461,4210.333008,4222.641113,4228.281738,4223.153809,4224.692383,4201.102539,4225.205078,4207.256348,0,2044,2043,0,0,0,1190,800,2,3,4,4,3,3,1,3,4,4,3,4,4,4,4,4
20,0,4153.410156,4149.307617,4139.563965,4156.487305,4125.205078,4137.512695,4130.846191,4144.179199,4153.410156,4147.769043,4152.897461,4128.794922,4150.846191,4135.461426,0,2046,2042,0,0,0,1190,809,2,3,4,4,3,3,1,3,4,4,3,4,4,4,4,4
21,0,4165.358887,4158.179199,4148.94873,4171.512695,4143.307617,4147.410156,4144.846191,4153.563965,4160.230469,4156.641113,4160.743652,4134.589844,4156.641113,4144.333008,0,2046,2042,0,0,0,1190,817,2,3,4,4,3,3,1,3,4,4,3,4,4,4,4,4
22,0,4113.230469,4105.025391,4100.410156,4126.05127,4098.358887,4095.281738,4092.205078,4106.563965,4104.512695,4102.461426,4105.538574,4085.025391,4105.538574,4088.615234,0,2047,2042,0,0,0,1190,825,2,3,4,4,3,3,1,3,4,4,3,4,4,4,4,4
23,0,4261.102539,4255.974121,4249.307617,4277.512695,4248.794922,4246.743652,4242.12793,4261.102539,4253.922852,4250.333008,4255.461426,4240.07666,4261.102539,4237,0,2046,2042,0,0,0,1190,834,2,3,4,4,3,3,1,3,4,4,3,4,4,4,4,4
24,0,4171.974121,4174.025391,4163.256348,4194.538574,4167.358887,4165.820313,4160.692383,4173.512695,4165.307617,4161.205078,4165.820313,4144.794922,4169.922852,4149.922852,0,2047,2044,0,0,0,1190,842,2,3,4,4,3,3,1,3,4,4,3,4,4,4,4,4
25,0,4092.256348,4088.153809,4081.487305,4102.512695,4080.974121,4077.897461,4069.692383,4086.615234,4089.179199,4085.07666,4089.692383,4068.153809,4086.102539,4074.307617,0,2045,2045,0,0,0,1190,850,2,3,4,4,3,3,1,3,4,4,3,4,4,4,4,4
26,0,4103.794922,4097.12793,4090.974121,4104.820313,4089.94873,4087.897461,4081.743652,4099.692383,4106.871582,4103.794922,4106.358887,4081.230469,4101.230469,4086.871582,0,2046,2046,0,0,0,1190,859,2,3,4,4,3,3,1,3,4,4,3,4,4,4,4,4
27,0,4116.179199,4110.025391,4105.922852,4121.307617,4105.922852,4103.358887,4099.769043,4115.153809,4118.743652,4115.153809,4119.256348,4096.179199,4116.179199,4099.256348,0,2045,2047,0,0,0,1190,867,2,3,4,4,3,3,1,3,4,4,3,4,4,4,4,4
28,0,4086.666504,4077.436035,4076.922852,4092.307617,4073.846191,4070.256348,4067.179199,4082.05127,4084.615234,4080.512695,4084.615234,4068.717773,4085.12793,4070.769043,0,2045,2047,0,0,0,1190,875,2,3,4,4,3,3,1,3,4,4,3,4,4,4,4,4
29,0,4200.487305,4197.922852,4194.333008,4208.179199,4194.333008,4190.230469,4188.692383,4200.487305,4195.358887,4196.897461,4192.794922,4176.897461,4200.487305,4181.512695,0,2045,2048,0,0,0,1190,884,2,3,4,4,3,3,1,3,4,4,3,4,4,4,4,4
30,0,4078.563965,4074.974121,4072.410156,4082.666504,4071.384277,4067.794922,4065.230469,4080.615234,4074.461426,4077.538574,4074.974121,4061.641113,4081.641113,4061.641113,0,2045,2048,0,0,0,1190,892,2,3,4,4,3,3,1,3,4,4,3,4,4,4,4,4
31,0,4167.615234,4163,4159.922852,4174.281738,4159.410156,4157.871582,4148.12793,4169.153809,4174.794922,4169.153809,4173.769043,4150.179199,4170.692383,4154.794922,0,2043,2043,0,0,0,1190,900,2,3,4,4,3,3,1,3,4,4,3,4,4,4,4,4
32,0,4070.666504,4066.563965,4061.436035,4079.384277,4063.487305,4060.410156,4047.589844,4071.179199,4082.461426,4072.205078,4079.384277,4049.641113,4069.641113,4056.820313,0,2042,2044,0,0,0,1190,909,2,3,4,4,3,3,1,3,4,4,3,4,4,4,4,4
33,0,4135.666504,4130.025391,4125.410156,4140.794922,4125.922852,4121.820313,4114.12793,4135.153809,4137.717773,4134.12793,4136.692383,4118.230469,4135.153809,4118.230469,0,2043,2041,0,0,0,1190,917,2,3,4,4,3,3,1,3,4,4,3,4,4,4,4,4
34,0,4189.410156,4191.461426,4183.256348,4198.641113,4188.897461,4182.230469,4176.589844,4193.512695,4183.256348,4185.307617,4184.794922,4166.333008,4191.461426,4171.461426,0,2043,2042,0,0,0,1190,926,2,3,4,4,3,3,1,3,4,4,3,4,4,4,4,4
35,0,4208.589844,4206.025391,4200.384277,4213.717773,4202.436035,4197.307617,4189.102539,4209.102539,4209.102539,4207.563965,4213.205078,4191.666504,4209.615234,4198.846191,0,2043,2042,0,0,0,1190,933,2,3,4,4,3,3,1,3,4,4,3,4,4,4,4,4
36,0,4197.666504,4191,4187.410156,4200.743652,4186.897461,4182.281738,4177.666504,4199.205078,4208.94873,4203.307617,4207.922852,4184.846191,4201.256348,4192.025391,0,2043,2043,0,0,0,1190,941,2,3,4,4,3,3,1,3,4,4,3,4,4,4,4,4
37,0,4092.974121,4091.94873,4089.384277,4102.205078,4090.922852,4084.769043,4081.692383,4099.641113,4100.666504,4098.615234,4100.153809,4075.025391,4099.12793,4086.307617,0,2043,2045,0,0,0,1190,948,2,3,4,4,3,3,1,3,4,4,3,4,4,4,4,4
38,0,4255,4252.94873,4252.436035,4264.230469,4251.922852,4247.307617,4240.641113,4258.589844,4258.07666,4258.589844,4262.692383,4241.666504,4260.641113,4251.410156,0,2043,2045,0,0,0,1190,955,2,3,4,4,3,3,1,3,4,4,3,4,4,4,4,4
39,0,4245.410156,4245.410156,4241.307617,4260.281738,4243.871582,4238.743652,4237.205078,4253.102539,4257.205078,4255.666504,4258.743652,4233.102539,4254.12793,4244.384277,0,2042,2046,0,0,0,1190,963,2,3,4,4,3,3,1,3,4,4,3,4,4,4,4,4
40,0,4149.461426,4147.410156,4144.333008,4159.205078,4146.897461,4141.256348,4144.333008,4160.230469,4167.410156,4164.333008,4170.487305,4143.820313,4161.256348,4152.025391,0,2044,2046,0,0,0,1190,970,2,3,4,4,3,3,1,3,4,4,3,4,4,4,4,4
41,0,4037.487305,4035.94873,4034.922852,4032.871582,4035.436035,4031.846191,4031.333008,4045.692383,4051.846191,4048.256348,4055.436035,4029.281738,4046.205078,4039.025391,0,2042,2046,0,0,0,1190,977,2,3,4,4,3,3,1,3,4,4,3,4,4,4,4,4
42,0,4094.974121,4096,4093.436035,4089.333008,4095.487305,4090.871582,4092.922852,4099.589844,4104.205078,4101.12793,4105.743652,4078.05127,4100.615234,4090.871582,0,2043,2045,0,0,0,1190,985,2,3,4,4,3,3,1,3,4,4,3,4,4,4,4,4
43,0,4253.563965,4252.025391,4246.897461,4255.102539,4249.974121,4243.820313,4249.461426,4257.153809,4267.410156,4263.307617,4268.94873,4244.846191,4263.307617,4252.538574,0,2043,2043,0,0,0,1190,992,2,3,4,4,3,3,1,3,4,4,3,4,4,4,4,4
44,0,4191.410156,4196.025391,4189.871582,4196.025391,4191.410156,4188.333008,4189.358887,4201.153809,4204.230469,4201.666504,4207.820313,4182.692383,4203.205078,4193.974121,0,2044,2041,0,0,0,1190,1000,2,3,4,4,3,3,1,3,4,4,3,4,4,4,4,4
45,0,4208.974121,4213.07666,4210.512695,4201.794922,4207.436035,4206.922852,4203.846191,4214.102539,4211.538574,4210,4216.666504,4196.153809,4212.05127,4210,0,2043,2040,0,0,0,1191,7,2,3,4,4,3,3,1,3,4,4,3,4,4,4,4,4
46,0,4141.512695,4139.974121,4138.436035,4127.153809,4133.820313,4136.897461,4134.333008,4143.05127,4143.563965,4140.487305,4145.102539,4127.666504,4143.563965,4141,0,2043,2038,0,0,0,1191,14,2,3,4,4,3,3,1,3,4,4,3,4,4,4,4,4
47,0,4241.871582,4243.922852,4240.846191,4236.230469,4233.153809,4240.846191,4240.333008,4250.07666,4247,4244.94873,4247.512695,4229.05127,4249.563965,4239.307617,0,2042,2040,0,0,0,1191,22,2,3,4,4,3,3,1,3,4,4,3,4,4,4,4,4
48,0,3989.94873,3990.974121,3987.384277,3993.025391,3974.05127,3982.769043,3984.820313,3994.563965,3989.94873,3990.461426,3993.538574,3977.12793,3996.102539,3984.307617,0,2042,2040,0,0,0,1191,29,2,3,4,4,3,3,1,3,4,4,3,4,4,4,4,4
49,0,4152.333008,4157.461426,4150.281738,4166.692383,4145.153809,4148.230469,4151.307617,4156.436035,4149.769043,4150.281738,4150.794922,4131.820313,4156.94873,4147.205078,0,2043,2042,0,0,0,1191,36,2,3,4,4,3,3,1,3,4,4,3,4,4,4,4,4
50,0,4077.281738,4085.487305,4081.384277,4089.589844,4081.384277,4078.307617,4075.743652,4088.563965,4082.410156,4080.358887,4084.461426,4068.05127,4088.05127,4080.871582,0,2043,2043,0,0,0,1191,44,2,3,4,4,3,3,1,3,4,4,3,4,4,4,4,4
51,0,4119.307617,4125.461426,4121.871582,4119.820313,4122.897461,4118.281738,4114.692383,4135.205078,4132.641113,4131.102539,4136.743652,4117.256348,4135.205078,4129.05127,0,2043,2043,0,0,0,1191,51,2,3,4,4,3,3,1,3,4,4,3,4,4,4,4,4
52,0,4276.717773,4284.410156,4279.281738,4277.230469,4282.358887,4279.281738,4281.333008,4291.07666,4286.974121,4286.974121,4291.07666,4266.461426,4290.05127,4283.897461,0,2044,2044,0,0,0,1191,58,2,3,4,4,3,3,1,3,4,4,3,4,4,4,4,4
53,0,4191.358887,4195.974121,4192.897461,4183.153809,4193.410156,4189.820313,4194.436035,4196.487305,4194.436035,4190.333008,4199.05127,4183.153809,4198.025391,4192.897461,0,2044,2045,0,0,0,1191,66,2,3,4,4,3,3,1,3,4,4,3,4,4,4,4,4
54,0,4134.794922,4144.025391,4137.871582,4120.436035,4141.974121,4134.794922,4138.384277,4142.487305,4138.897461,4132.743652,4139.410156,4123,4142.487305,4133.256348,0,2044,2045,0,0,0,1191,73,2,3,4,4,3,3,1,3,4,4,3,4,4,4,4,4
55,0,4286.820313,4297.07666,4292.461426,4275.538574,4290.922852,4288.871582,4288.871582,4298.102539,4295.025391,4294,4298.102539,4277.589844,4297.07666,4289.897461,0,2044,2044,0,0,0,1191,81,2,3,4,4,3,3,1,3,4,4,3,4,4,4,4,4
56,0,4295.384277,4301.025391,4303.07666,4288.205078,4285.641113,4296.410156,4295.384277,4305.641113,4307.179199,4306.153809,4313.846191,4291.794922,4307.692383,4303.07666,0,2044,2045,0,0,0,1191,90,2,3,4,4,3,3,1,3,4,4,3,4,4,4,4,4
57,0,4179.307617,4185.461426,4187.512695,4174.692383,4172.12793,4183.410156,4180.846191,4190.589844,4194.179199,4187,4194.179199,4170.07666,4190.589844,4182.384277,0,2045,2046,0,0,0,1191,98,2,3,4,4,3,3,1,3,4,4,3,4,4,4,4,4
58,0,4141.358887,4146.487305,4145.461426,4131.102539,4141.871582,4141.358887,4138.794922,4152.12793,4157.769043,4150.589844,4158.794922,4139.820313,4152.641113,4147,0,2044,2046,0,0,0,1191,106,2,3,4,4,3,3,1,3,4,4,3,4,4,4,4,4
59,0,4229.641113,4240.922852,4236.820313,4227.589844,4236.820313,4234.256348,4235.794922,4247.07666,4243.487305,4242.461426,4249.641113,4229.641113,4247.07666,4238.871582,0,2045,2046,0,0,0,1191,115,2,3,4,4,3,3,1,3,4,4,3,4,4,4,4,4
60,0,4060.205078,4072.512695,4068.922852,4064.820313,4065.846191,4067.384277,4065.846191,4077.641113,4072.512695,4070.974121,4079.179199,4056.615234,4075.589844,4067.897461,0,2044,2043,0,0,0,1191,123,2,3,4,4,3,3,1,3,4,4,3,4,4,4,4,4
61,0,4308.05127,4313.179199,4309.589844,4301.897461,4308.05127,4308.563965,4301.897461,4317.794922,4326,4321.384277,4328.563965,4304.461426,4317.794922,4315.743652,0,2045,2044,0,0,0,1191,131,2,3,4,4,3,3,1,3,4,4,3,4,4,4,4,4
62,0,4273.94873,4283.179199,4278.563965,4271.384277,4277.538574,4277.025391,4273.436035,4288.307617,4298.563965,4292.410156,4299.07666,4268.307617,4285.743652,4283.692383,0,2044,2042,0,0,0,1191,140,2,3,4,4,3,3,1,3,4,4,3,4,4,4,4,4
63,0,4166.846191,4176.07666,4174.538574,4175.563965,4171.974121,4169.410156,4167.871582,4185.820313,4199.666504,4191.461426,4201.717773,4173.512695,4185.820313,4183.256348,0,2044,2043,0,0,0,1191,148,2,3,4,4,3,3,1,3,4,4,3,4,4,4,4,4
64,0,4106.743652,4115.974121,4113.410156,4120.07666,4116.487305,4111.871582,4109.820313,4128.281738,4141.102539,4136.487305,4143.153809,4112.897461,4128.794922,4124.179199,271,2043,2044,0,0,0,1191,157,2,3,4,4,3,3,1,3,4,4,3,4,4,4,4,4
65,0,4054.256348,4064.512695,4060.410156,4064.512695,4062.974121,4060.922852,4059.897461,4069.641113,4073.743652,4072.717773,4078.358887,4047.07666,4069.641113,4063.487305,315,2043,2045,0,0,0,1191,165,2,3,4,4,3,3,1,3,4,4,3,4,4,4,4,4
66,0,4167.307617,4178.07666,4173.974121,4175.512695,4168.846191,4170.897461,4171.410156,4177.05127,4178.589844,4174.487305,4181.666504,4162.179199,4179.102539,4174.487305,404,2043,2045,0,0,0,1191,173,2,3,4,4,3,3,1,3,4,4,3,4,4,4,4,4
67,0,4002.153809,4020.102539,4012.410156,4019.589844,4012.410156,4012.410156,4010.358887,4017.025391,4019.07666,4012.410156,4019.07666,4000.102539,4016,4012.922852,436,2044,2046,0,0,0,1191,182,2,3,4,4,3,3,1,3,4,4,3,4,4,4,4,4
68,0,4245.436035,4255.692383,4249.538574,4256.205078,4251.07666,4248.512695,4242.358887,4254.153809,4258.769043,4255.179199,4264.410156,4240.820313,4255.179199,4255.692383,345,2043,2048,0,0,0,1191,190,2,3,4,4,3,3,1,3,4,4,3,4,4,4,4,4
69,0,4271.666504,4276.281738,4269.102539,4273.717773,4269.102539,4267.05127,4261.922852,4275.256348,4282.436035,4278.846191,4288.589844,4256.794922,4276.281738,4277.820313,391,2045,2049,0,0,0,1191,198,2,3,4,4,3,3,1,3,4,4,3,4,4,4,4,4
70,0,4263.589844,4272.307617,4263.07666,4267.692383,4263.589844,4263.07666,4260,4270.769043,4280.512695,4272.307617,4282.05127,4251.281738,4268.717773,4269.743652,98,2044,2048,0,0,0,1191,207,2,3,4,4,3,3,1,3,4,4,3,4,4,4,4,4
71,0,4160.897461,4173.717773,4166.538574,4169.615234,4165.512695,4166.025391,4159.871582,4172.692383,4179.871582,4173.205078,4182.94873,4162.94873,4174.743652,4172.692383,341,2044,2044,0,0,0,1191,215,2,3,4,4,3,3,1,3,4,4,3,4,4,4,4,4
72,0,4292.666504,4311.641113,4304.461426,4306.512695,4306,4303.94873,4299.846191,4307.538574,4304.974121,4302.410156,4309.07666,4284.974121,4309.07666,4301.897461,885,2044,2042,0,0,0,1191,223,2,3,4,4,3,3,1,3,4,4,3,4,4,4,4,4
73,0,4076.307617,4088.615234,4085.025391,4086.563965,4088.615234,4080.922852,4079.384277,4088.615234,4087.589844,4084,4091.179199,4065.538574,4087.589844,4084,852,2043,2040,0,0,0,1191,232,2,3,4,4,3,3,1,3,4,4,3,4,4,4,4,4
74,0,4033.794922,4042,4038.922852,4046.102539,4045.589844,4036.871582,4033.794922,4050.717773,4051.743652,4049.179199,4054.307617,4029.692383,4045.07666,4049.179199,299,2043,2038,0,0,0,1191,239,2,3,4,4,3,3,1,3,4,4,3,4,4,4,4,4
75,0,4181.153809,4193.461426,4188.333008,4196.538574,4194.487305,4193.461426,4188.333008,4201.153809,4196.025391,4195.512695,4201.153809,4176.538574,4194.487305,4200.12793,582,2043,2038,0,0,0,1191,246,2,3,4,4,3,3,1,3,4,4,3,4,4,4,4,4
76,0,4121.230469,4132,4129.94873,4127.897461,4122.256348,4132,4129.94873,4132.512695,4124.820313,4123.794922,4132.512695,4113.025391,4134.05127,4133.025391,930,2041,2039,0,0,0,1191,254,2,3,4,4,3,3,1,3,4,4,3,4,4,4,4,4
77,0,4242.07666,4256.94873,4253.358887,4253.871582,4246.692383,4254.384277,4255.922852,4252.846191,4239.512695,4239,4242.07666,4225.666504,4255.922852,4247.717773,472,2042,2040,0,0,0,1191,261,2,3,4,4,3,3,1,3,4,4,3,4,4,4,4,4
78,0,4063.179199,4075.487305,4071.897461,4072.922852,4076,4070.871582,4071.384277,4074.974121,4064.717773,4062.153809,4066.769043,4054.974121,4076,4072.922852,299,2042,2044,0,0,0,1191,268,2,3,4,4,3,3,1,3,4,4,3,4,4,4,4,4
79,0,4131.410156,4137.563965,4134.487305,4128.333008,4142.179199,4132.436035,4131.410156,4140.641113,4138.07666,4133.461426,4142.179199,4124.230469,4139.615234,4141.153809,582,2043,2045,0,0,0,1191,276,2,3,4,4,3,3,1,3,4,4,3,4,4,4,4,4
80,0,4146.897461,4158.692383,4152.025391,4147.410156,4158.179199,4152.025391,4148.94873,4155.102539,4153.563965,4150.487305,4158.692383,4132.025391,4152.538574,4156.641113,930,2044,2047,0,0,0,1191,283,2,3,4,4,3,3,1,3,4,4,3,4,4,4,4,4
81,0,4176.384277,4190.230469,4182.025391,4176.897461,4185.615234,4183.05127,4178.436035,4185.615234,4188.179199,4186.641113,4194.846191,4170.743652,4185.615234,4196.384277,472,2044,2047,0,0,0,1191,290,2,3,4,4,3,3,1,3,4,4,3,4,4,4,4,4
82,0,4045.743652,4059.07666,4053.436035,4042.153809,4058.563965,4057.025391,4053.436035,4063.179199,4064.717773,4064.205078,4072.922852,4043.179199,4062.153809,4069.846191,299,2043,2047,0,0,0,1191,298,2,3,4,4,3,3,1,3,4,4,3,4,4,4,4,4
83,0,4287.846191,4300.153809,4298.102539,4280.153809,4299.12793,4295.538574,4290.410156,4302.717773,4308.871582,4307.333008,4319.12793,4285.794922,4303.743652,4310.410156,582,2044,2045,0,0,0,1191,305,2,3,4,4,3,3,1,3,4,4,3,4,4,4,4,4
84,0,4038.410156,4051.230469,4045.589844,4033.281738,4047.641113,4041.487305,4037.384277,4047.641113,4055.846191,4051.230469,4060.461426,4032.256348,4047.12793,4055.846191,930,2043,2043,0,0,0,1191,313,2,3,4,4,3,3,1,3,4,4,3,4,4,4,4,4
85,0,4141.743652,4158.153809,4148.922852,4146.871582,4158.666504,4150.974121,4148.922852,4155.07666,4153.538574,4151.487305,4155.07666,4132,4148.922852,4153.025391,472,2044,2042,0,0,0,1191,320,2,3,4,4,3,3,1,3,4,4,3,4,4,4,4,4
86,0,4224.256348,4237.589844,4233.487305,4230.922852,4237.589844,4234,4229.384277,4238.615234,4238.615234,4236.05127,4244.256348,4223.743652,4236.563965,4241.179199,299,2044,2041,0,0,0,1191,327,2,3,4,4,3,3,1,3,4,4,3,4,4,4,4,4
87,0,4173.615234,4189.512695,4187.461426,4182.846191,4186.94873,4187.974121,4185.410156,4190.025391,4191.05127,4183.871582,4192.589844,4165.410156,4186.94873,4192.07666,582,2044,2040,0,0,0,1191,335,2,3,4,4,3,3,1,3,4,4,3,4,4,4,4,4
88,0,4154.589844,4171.512695,4170.487305,4168.94873,4172.538574,4168.94873,4163.820313,4171.512695,4167.922852,4165.358887,4172.025391,4146.384277,4166.897461,4172.025391,930,2044,2040,0,0,0,1191,342,2,3,4,4,3,3,1,3,4,4,3,4,4,4,4,4
89,0,4165.666504,4181.563965,4179.512695,4183.102539,4181.05127,4175.410156,4160.538574,4183.102539,4186.179199,4185.153809,4189.769043,4168.743652,4181.563965,4187.717773,472,2044,2042,0,0,0,1191,350,2,3,4,4,3,3,1,3,4,4,3,4,4,4,4,4
90,0,4184.179199,4201.615234,4197,4201.102539,4199.563965,4195.461426,4179.05127,4207.256348,4213.410156,4208.794922,4213.922852,4185.205078,4200.07666,4208.281738,299,2046,2042,0,0,0,1191,359,2,3,4,4,3,3,1,3,4,4,3,4,4,4,4,4
91,0,4101.358887,4110.07666,4109.563965,4111.615234,4110.07666,4109.05127,4093.153809,4120.846191,4124.436035,4120.846191,4128.025391,4101.358887,4113.666504,4123.410156,582,2045,2046,0,0,0,1191,367,2,3,4,4,3,3,1,3,4,4,3,4,4,4,4,4
92,0,4180.230469,4191.512695,4190.487305,4194.589844,4192.538574,4190.487305,4172.538574,4196.12793,4195.615234,4193.563965,4197.666504,4173.05127,4193.05127,4197.666504,930,2045,2045,0,0,0,1191,375,2,3,4,4,3,3,1,3,4,4,3,4,4,4,4,4
93,0,4150.230469,4167.153809,4161,4164.07666,4167.153809,4159.974121,4141.512695,4165.102539,4169.717773,4163.563965,4168.692383,4142.025391,4162.538574,4168.692383,472,2043,2045,0,0,0,1191,384,2,3,4,4,3,3,1,3,4,4,3,4,4,4,4,4
94,0,4141.384277,4157.281738,4149.589844,4149.589844,4152.666504,4150.615234,4128.05127,4157.794922,4168.05127,4162.922852,4170.615234,4140.871582,4154.205078,4167.025391,299,2042,2045,0,0,0,1191,392,2,3,4,4,3,3,1,3,4,4,3,4,4,4,4,4
95,0,4147.230469,4169.281738,4162.102539,4162.615234,4163.12793,4165.179199,4140.563965,4170.820313,4176.974121,4173.897461,4180.05127,4145.692383,4163.641113,4176.974121,582,2042,2048,0,0,0,1191,400,2,3,4,4,3,3,1,3,4,4,3,4,4,4,4,4
96,0,4134.333008,4152.281738,4148.179199,4147.666504,4148.179199,4144.589844,4125.615234,4150.743652,4161.512695,4157.922852,4164.07666,4134.846191,4148.692383,4162.025391,930,2042,2048,0,0,0,1191,409,2,3,4,4,3,3,1,3,4,4,3,4,4,4,4,4
97,0,4318.922852,4332.769043,4325.07666,4333.281738,4331.230469,4322.512695,4309.692383,4332.256348,4345.589844,4345.07666,4349.179199,4316.871582,4328.153809,4343.538574,472,2041,2047,0,0,0,1191,417,2,3,4,4,3,3,1,3,4,4,3,4,4,4,4,4
98,0,4192.846191,4205.666504,4202.07666,4215.410156,4205.153809,4200.538574,4187.717773,4213.358887,4222.07666,4222.589844,4229.256348,4191.820313,4204.641113,4223.102539,299,2042,2046,0,0,0,1191,425,2,3,4,4,3,3,1,3,4,4,3,4,4,4,4,4
99,0,4297.230469,4310.563965,4310.563965,4318.256348,4306.974121,4308.512695,4292.102539,4321.333008,4332.102539,4327.487305,4337.230469,4302.871582,4319.281738,4335.179199,582,2041,2044,0,0,0,1191,434,2,3,4,4,3,3,1,3,4,4,3,4,4,4,4,4
100,0,4079.641113,4099.12793,4092.461426,4100.153809,4094,4094.512695,4077.07666,4105.281738,4114.512695,4110.922852,4116.05127,4079.12793,4100.666504,4111.94873,930,2043,2044,0,0,0,1191,442,2,3,4,4,3,3,1,3,4,4,3,4,4,4,4,4
101,0,4215.820313,4230.179199,4225.563965,4231.205078,4224.538574,4223,4207.615234,4236.333008,4250.179199,4247.615234,4254.281738,4217.871582,4231.205078,4244.538574,472,2043,2043,0,0,0,1191,450,2,3,4,4,3,3,1,3,4,4,3,4,4,4,4,4
102,0,4207.769043,4220.07666,4216.487305,4225.205078,4215.974121,4215.461426,4201.615234,4230.333008,4245.717773,4240.589844,4248.281738,4208.794922,4228.281738,4241.615234,299,2045,2042,0,0,0,1191,459,2,3,4,4,3,3,1,3,4,4,3,4,4,4,4,4
103,0,4035.281738,4050.666504,4044,4056.820313,4047.07666,4047.07666,4026.563965,4058.871582,4069.12793,4064,4072.717773,4031.692383,4052.717773,4069.12793,582,2044,2040,0,0,0,1191,466,2,3,4,4,3,3,1,3,4,4,3,4,4,4,4,4
104,0,4199.461426,4211.769043,4204.589844,4214.333008,4204.589844,4204.589844,4184.589844,4215.871582,4227.666504,4226.641113,4233.307617,4200.487305,4209.717773,4227.153809,930,2046,2042,0,0,0,1191,473,2,3,4,4,3,3,1,3,4,4,3,4,4,4,4,4
105,0,4032.820313,4045.641113,4038.974121,4052.307617,4043.589844,4041.025391,4027.179199,4050.256348,4060.512695,4060.512695,4062.05127,4028.717773,4047.179199,4057.94873,472,2045,2043,0,0,0,1191,481,2,3,4,4,3,3,1,3,4,4,3,4,4,4,4,4
106,0,4100.871582,4112.153809,4109.07666,4120.871582,4108.05127,4109.589844,4092.666504,4119.333008,4128.05127,4125.487305,4131.641113,4097.794922,4117.794922,4131.12793,299,2045,2045,0,0,0,1191,488,2,3,4,4,3,3,1,3,4,4,3,4,4,4,4,4
107,0,4099.769043,4116.179199,4113.102539,4121.307617,4095.153809,4112.589844,4098.743652,4121.820313,4125.922852,4120.281738,4129.512695,4098.230469,4115.153809,4129,582,2045,2044,0,0,0,1191,496,2,3,4,4,3,3,1,3,4,4,3,4,4,4,4,4
108,0,4070.102539,4091.641113,4084.461426,4096.769043,4058.307617,4088.563965,4076.256348,4088.05127,4087.025391,4081.897461,4088.563965,4063.436035,4087.025391,4090.102539,930,2045,2045,0,0,0,1191,503,2,3,4,4,3,3,1,3,4,4,3,4,4,4,4,4
109,0,4189.307617,4202.641113,4196.487305,4208.794922,4179.05127,4199.563965,4182.641113,4200.07666,4201.102539,4199.563965,4206.230469,4181.102539,4207.256348,4206.743652,472,2045,2044,0,0,0,1191,510,2,3,4,4,3,3,1,3,4,4,3,4,4,4,4,4
110,0,4171.384277,4185.230469,4179.589844,4187.794922,4176.512695,4181.12793,4165.230469,4187.794922,4191.384277,4190.871582,4195.487305,4160.102539,4185.743652,4187.281738,299,2045,2045,0,0,0,1191,518,2,3,4,4,3,3,1,3,4,4,3,4,4,4,4,4
111,0,4174.94873,4191.871582,4183.153809,4197.512695,4180.07666,4183.153809,4169.307617,4192.897461,4202.12793,4199.563965,4204.179199,4173.922852,4186.743652,4195.974121,582,2046,2043,0,0,0,1191,525,2,3,4,4,3,3,1,3,4,4,3,4,4,4,4,4
112,0,4309.384277,4324.256348,4314,4336.05127,4310.410156,4312.461426,4300.153809,4325.794922,4331.94873,4332.461426,4337.07666,4308.871582,4325.794922,4332.461426,930,2044,2041,0,0,0,1191,532,2,3,4,4,3,3,1,3,4,4,3,4,4,4,4,4
113,0,4074.717773,4090.102539,4085.487305,4099.333008,4086,4082.922852,4069.07666,4094.717773,4094.205078,4094.717773,4101.897461,4066.512695,4094.205078,4096.256348,472,2043,2039,0,0,0,1191,541,2,3,4,4,3,3,1,3,4,4,3,4,4,4,4,4
114,0,4194.794922,4206.589844,4205.563965,4215.307617,4205.05127,4204.538574,4186.07666,4214.281738,4216.846191,4213.256348,4222.487305,4192.230469,4209.153809,4215.820313,299,2043,2038,0,0,0,1191,549,2,3,4,4,3,3,1,3,4,4,3,4,4,4,4,4
115,0,4088.256348,4100.563965,4093.897461,4111.333008,4098.512695,4096.974121,4080.05127,4106.717773,4106.205078,4104.153809,4107.743652,4079.025391,4099.538574,4105.179199,582,2044,2039,0,0,0,1191,557,2,3,4,4,3,3,1,3,4,4,3,4,4,4,4,4
116,0,4082.307617,4092.05127,4088.974121,4099.230469,4089.487305,4086.410156,4074.102539,4097.692383,4094.615234,4092.563965,4098.205078,4070.512695,4097.692383,4099.743652,930,2043,2040,0,0,0,1191,566,2,3,4,4,3,3,1,3,4,4,3,4,4,4,4,4
117,0,4160.743652,4171,4171.512695,4174.07666,4168.94873,4167.922852,4156.641113,4177.666504,4173.05127,4168.436035,4176.12793,4152.538574,4179.205078,4180.743652,472,2041,2040,0,0,0,1191,574,2,3,4,4,3,3,1,3,4,4,3,4,4,4,4,4
118,0,4211.666504,4229.102539,4226.025391,4230.641113,4227.563965,4227.563965,4208.589844,4230.641113,4229.102539,4226.538574,4230.641113,4203.461426,4228.589844,4230.641113,299,2042,2041,0,0,0,1191,582,2,3,4,4,3,3,1,3,4,4,3,4,4,4,4,4
119,0,4019.384277,4031.179199,4029.12793,4034.256348,4027.07666,4029.641113,4009.12793,4033.230469,4045.025391,4042.461426,4048.615234,4016.820313,4037.333008,4040.410156,582,2041,2043,0,0,0,1191,591,2,3,4,4,3,3,1,3,4,4,3,4,4,4,4,4
120,0,4267.794922,4280.615234,4277.538574,4283.179199,4267.281738,4277.025391,4267.281738,4285.230469,4292.410156,4289.846191,4294.461426,4261.12793,4285.743652,4286.256348,930,2041,2044,0,0,0,1191,599,2,3,4,4,3,3,1,3,4,4,3,4,4,4,4,4
121,0,4268.307617,4284.717773,4282.153809,4286.769043,4263.179199,4278.05127,4267.281738,4288.820313,4289.333008,4287.794922,4292.922852,4263.692383,4281.12793,4282.153809,472,2041,2046,0,0,0,1191,606,2,3,4,4,3,3,1,3,4,4,3,4,4,4,4,4
122,0,4293.794922,4310.205078,4308.153809,4311.230469,4289.179199,4305.07666,4287.12793,4316.871582,4324.05127,4321.487305,4329.179199,4296.358887,4312.769043,4311.230469,299,2041,2045,0,0,0,1191,614,2,3,4,4,3,3,1,3,4,4,3,4,4,4,4,4
123,0,4164.641113,4180.025391,4177.461426,4179.512695,4166.692383,4177.974121,4165.153809,4187.205078,4191.307617,4187.717773,4197.461426,4159.512695,4183.615234,4180.538574,582,2042,2045,0,0,0,1191,622,2,3,4,4,3,3,1,3,4,4,3,4,4,4,4,4
124,0,4208.846191,4215,4216.025391,4215.512695,4209.871582,4211.922852,4204.230469,4223.205078,4224.230469,4220.12793,4231.410156,4203.717773,4220.641113,4218.07666,930,2042,2043,0,0,0,1191,630,2,3,4,4,3,3,1,3,4,4,3,4,4,4,4,4
125,0,4241.871582,4250.07666,4250.589844,4249.563965,4249.563965,4244.94873,4232.641113,4257.256348,4261.358887,4257.769043,4263.922852,4234.179199,4258.281738,4248.538574,472,2043,2043,0,0,0,1191,637,2,3,4,4,3,3,1,3,4,4,3,4,4,4,4,4
126,0,4102.281738,4114.589844,4115.102539,4114.07666,4115.615234,4109.974121,4093.05127,4121.769043,4124.333008,4122.281738,4127.922852,4098.692383,4122.281738,4112.025391,299,2044,2041,0,0,0,1191,645,2,3,4,4,3,3,1,3,4,4,3,4,4,4,4,4
127,0,4060.769043,4070,4070.512695,4072.05127,4073.589844,4069.487305,4056.666504,4079.230469,4076.666504,4075.641113,4081.794922,4058.717773,4077.692383,4073.07666,582,2044,2040,0,0,0,1191,653,2,3,4,4,3,3,1,3,4,4,3,4,4,4,4,4
128,0,4206.692383,4217.974121,4215.922852,4221.05127,4221.563965,4216.436035,4209.769043,4225.666504,4219.512695,4217.974121,4222.07666,4192.333008,4223.102539,4213.358887,930,2044,2039,0,0,0,1191,660,2,3,4,4,3,3,1,3,4,4,3,4,4,4,4,4
0,0,4047.230469,4057.487305,4057.487305,4060.563965,4054.922852,4054.410156,4045.692383,4063.641113,4059.538574,4056.974121,4062.615234,4039.025391,4064.153809,4050.820313,272,2044,2038,0,0,0,1191,669,2,3,4,4,3,3,1,3,4,4,3,4,4,4,4,4
1,0,4151.205078,4165.05127,4163,4166.07666,4160.94873,4161.974121,4151.205078,4166.07666,4156.333008,4151.205078,4155.307617,4139.410156,4162.487305,4150.179199,315,2043,2040,0,0,0,1191,676,2,3,4,4,3,3,1,3,4,4,3,4,4,4,4,4
2,0,4347.281738,4362.666504,4359.07666,4363.179199,4361.12793,4358.563965,4348.307617,4357.025391,4341.641113,4338.05127,4343.179199,4328.307617,4354.461426,4344.205078,399,2044,2040,0,0,0,1191,684,2,3,4,4,3,3,1,3,4,4,3,4,4,4,4,4
3,0,4227.871582,4234.025391,4235.05127,4239.153809,4231.461426,4231.461426,4220.179199,4232.487305,4220.179199,4220.692383,4227.871582,4213,4235.563965,4225.820313,436,2044,2043,0,0,0,1191,692,2,3,4,4,3,3,1,3,4,4,3,4,4,4,4,4
4,0,4090.205078,4096.871582,4099.436035,4107.641113,4097.384277,4098.410156,4084.563965,4102.512695,4086.102539,4086.102539,4090.717773,4073.794922,4097.384277,4085.589844,345,2045,2045,0,0,0,1191,700,2,3,4,4,3,3,1,3,4,4,3,4,4,4,4,4
5,0,4198.281738,4207,4209.563965,4210.589844,4210.589844,4205.974121,4193.666504,4210.07666,4191.615234,4191.102539,4194.692383,4183.410156,4204.94873,4193.153809,391,2045,2045,0,0,0,1191,707,2,3,4,4,3,3,1,3,4,4,3,4,4,4,4,4
6,0,4120.281738,4132.589844,4131.563965,4124.384277,4134.12793,4129,4118.743652,4126.436035,4110.025391,4111.563965,4112.07666,4101.820313,4127.461426,4115.153809,98,2045,2045,0,0,0,1191,715,2,3,4,4,3,3,1,3,4,4,3,4,4,4,4,4
7,0,4149.743652,4165.12793,4161.538574,4158.974121,4166.153809,4161.538574,4149.743652,4156.922852,4145.641113,4144.615234,4149.230469,4134.871582,4157.94873,4146.666504,341,2045,2045,0,0,0,1191,723,2,3,4,4,3,3,1,3,4,4,3,4,4,4,4,4
8,0,4200.436035,4209.666504,4206.07666,4207.102539,4207.102539,4204.538574,4190.179199,4207.615234,4201.974121,4197.871582,4209.153809,4191.205078,4208.12793,4200.436035,882,2044,2046,0,0,0,1191,731,2,3,4,4,3,3,1,3,4,4,3,4,4,4,4,4
9,0,4166.358887,4176.615234,4173.025391,4172,4172.512695,4172,4161.743652,4177.12793,4165.333008,4165.333008,4171.487305,4150.974121,4174.05127,4163.794922,851,2044,2046,0,0,0,1191,739,2,3,4,4,3,3,1,3,4,4,3,4,4,4,4,4
10,0,4127.846191,4140.666504,4140.153809,4131.94873,4136.563965,4135.025391,4128.358887,4137.589844,4126.307617,4126.307617,4130.410156,4115.025391,4138.102539,4124.769043,300,2044,2046,0,0,0,1191,748,2,3,4,4,3,3,1,3,4,4,3,4,4,4,4,4
11,0,4294.820313,4307.641113,4306.102539,4305.07666,4305.07666,4304.05127,4296.358887,4303.025391,4295.846191,4291.230469,4296.871582,4279.436035,4306.102539,4290.717773,579,2044,2046,0,0,0,1191,756,2,3,4,4,3,3,1,3,4,4,3,4,4,4,4,4
12,0,4002.820313,4013.589844,4011.025391,4016.666504,4013.07666,4012.563965,4003.333008,4007.94873,3998.717773,3994.615234,3999.230469,3981.794922,4009.487305,3996.666504,931,2044,2044,0,0,0,1191,763,2,3,4,4,3,3,1,3,4,4,3,4,4,4,4,4
13,0,4142.436035,4150.641113,4150.12793,4143.461426,4145.512695,4145.512695,4135.769043,4146.025391,4136.281738,4134.230469,4139.358887,4125,4146.538574,4139.358887,471,2045,2043,0,0,0,1191,771,2,3,4,4,3,3,1,3,4,4,3,4,4,4,4,4
14,0,4156.256348,4171.641113,4171.12793,4160.871582,4164.461426,4164.974121,4156.769043,4171.641113,4157.281738,4155.230469,4160.871582,4139.333008,4166,4157.794922,300,2045,2040,0,0,0,1191,779,2,3,4,4,3,3,1,3,4,4,3,4,4,4,4,4
15,0,4142.743652,4154.538574,4157.615234,4150.94873,4151.461426,4151.461426,4146.333008,4157.102539,4143.256348,4142.230469,4148.384277,4133,4154.538574,4144.794922,579,2044,2042,0,0,0,1191,787,2,3,4,4,3,3,1,3,4,4,3,4,4,4,4,4
16,0,4117.717773,4126.94873,4126.94873,4124.384277,4121.307617,4123.871582,4119.256348,4124.897461,4110.025391,4109,4113.615234,4103.871582,4125.922852,4115.153809,0,2044,2041,0,0,0,1191,795,2,3,4,4,3,3,1,3,4,4,3,4,4,4,4,4
17,0,4038.717773,4051.538574,4048.461426,4048.974121,4037.692383,4045.897461,4041.281738,4047.436035,4030.512695,4026.410156,4033.589844,4016.153809,4044.358887,4034.615234,0,2043,2040,0,0,0,1191,803,2,3,4,4,3,3,1,3,4,4,3,4,4,4,4,4
18,0,4072.358887,4080.05127,4080.563965,4085.179199,4059.538574,4076.461426,4074.922852,4081.589844,4070.307617,4066.717773,4076.461426,4060.563965,4082.102539,4073.897461,0,2043,2042,0,0,0,1191,811,2,3,4,4,3,3,1,3,4,4,3,4,4,4,4,4
19,0,4087.589844,4101.94873,4100.922852,4108.102539,4081.94873,4100.410156,4100.922852,4100.922852,4085.025391,4085.025391,4089.12793,4075.794922,4101.94873,4091.179199,0,2043,2043,0,0,0,1191,819,2,3,4,4,3,3,1,3,4,4,3,4,4,4,4,4
20,0,4034.563965,4052.512695,4050.974121,4058.153809,4037.641113,4048.922852,4041.230469,4047.897461,4031.487305,4030.974121,4034.05127,4023.281738,4048.922852,4039.179199,0,2043,2042,0,0,0,1191,827,2,3,4,4,3,3,1,3,4,4,3,4,4,4,4,4
21,0,4140.641113,4155,4155.512695,4165.769043,4150.897461,4153.974121,4142.179199,4158.589844,4148.333008,4145.769043,4150.384277,4135.512695,4157.05127,4148.333008,0,2043,2043,0,0,0,1191,835,2,3,4,4,3,3,1,3,4,4,3,4,4,4,4,4
22,0,4177.05127,4192.436035,4191.922852,4200.12793,4194.487305,4194.487305,4183.717773,4197.563965,4187.307617,4186.281738,4189.871582,4169.871582,4191.922852,4185.256348,0,2044,2042,0,0,0,1191,842,2,3,4,4,3,3,1,3,4,4,3,4,4,4,4,4
23,0,4133.717773,4147.563965,4144.487305,4146.538574,4141.410156,4142.436035,4132.179199,4147.563965,4139.871582,4140.384277,4144.487305,4126.025391,4146.538574,4140.897461,0,2044,2040,0,0,0,1191,850,2,3,4,4,3,3,1,3,4,4,3,4,4,4,4,4
24,0,4197.307617,4212.179199,4206.538574,4210.12793,4203.461426,4203.461426,4195.256348,4211.153809,4205,4201.410156,4208.07666,4181.410156,4208.07666,4200.384277,0,2043,2041,0,0,0,1191,858,2,3,4,4,3,3,1,3,4,4,3,4,4,4,4,4
25,0,4148.846191,4157.05127,4157.563965,4159.615234,4156.025391,4155,4147.820313,4162.692383,4153.974121,4147.820313,4157.05127,4133.974121,4156.025391,4154.487305,0,2043,2041,0,0,0,1191,865,2,3,4,4,3,3,1,3,4,4,3,4,4,4,4,4
26,0,4060.820313,4068,4067.487305,4065.436035,4063.384277,4062.871582,4052.615234,4071.589844,4061.846191,4057.230469,4063.897461,4046.461426,4069.025391,4068.512695,0,2043,2042,0,0,0,1191,873,2,3,4,4,3,3,1,3,4,4,3,4,4,4,4,4
27,0,4208.846191,4226.281738,4214.487305,4219.102539,4215.512695,4213.974121,4198.589844,4217.563965,4213.974121,4209.358887,4218.07666,4189.871582,4217.563965,4213.461426,0,2042,2044,0,0,0,1191,881,2,3,4,4,3,3,1,3,4,4,3,4,4,4,4,4
28,0,4220.07666,4231.871582,4222.641113,4228.794922,4226.230469,4225.717773,4209.820313,4226.230469,4227.256348,4226.230469,4237.512695,4209.820313,4226.230469,4227.256348,0,2041,2044,0,0,0,1191,889,2,3,4,4,3,3,1,3,4,4,3,4,4,4,4,4
29,0,4251.436035,4260.666504,4255.538574,4258.615234,4259.641113,4260.666504,4249.897461,4260.153809,4254,4255.538574,4258.102539,4235.538574,4255.538574,4257.07666,0,2041,2044,0,0,0,1191,897,2,3,4,4,3,3,1,3,4,4,3,4,4,4,4,4
30,0,4172.922852,4181.12793,4173.436035,4178.05127,4176,4177.025391,4166.769043,4178.563965,4171.897461,4166.769043,4170.358887,4149.846191,4175.487305,4172.922852,0,2043,2046,0,0,0,1191,905,2,3,4,4,3,3,1,3,4,4,3,4,4,4,4,4
31,0,4226.563965,4226.563965,4219.897461,4227.07666,4222.974121,4222.974121,4212.717773,4228.615234,4226.563965,4217.846191,4225.538574,4206.563965,4229.12793,4227.589844,0,2043,2046,0,0,0,1191,912,2,3,4,4,3,3,1,3,4,4,3,4,4,4,4,4
32,0,4227.358887,4229.410156,4228.897461,4236.07666,4229.922852,4229.922852,4221.717773,4233.512695,4226.333008,4220.179199,4225.820313,4205.307617,4231.974121,4230.436035,0,2043,2044,0,0,0,1191,919,2,3,4,4,3,3,1,3,4,4,3,4,4,4,4,4
33,0,4183.871582,4185.922852,4189,4191.05127,4183.358887,4184.897461,4175.153809,4189,4176.692383,4169.512695,4179.256348,4164.897461,4186.94873,4182.846191,0,2043,2044,0,0,0,1191,927,2,3,4,4,3,3,1,3,4,4,3,4,4,4,4,4
34,0,4255.974121,4257,4253.922852,4255.461426,4256.487305,4254.436035,4245.717773,4261.102539,4245.205078,4240.07666,4248.281738,4233.410156,4255.461426,4251.871582,0,2042,2044,0,0,0,1191,936,2,3,4,4,3,3,1,3,4,4,3,4,4,4,4,4
35,0,4232.589844,4231.563965,4226.94873,4226.436035,4232.589844,4228.487305,4221.307617,4233.102539,4219.769043,4218.743652,4223.358887,4205.922852,4229,4230.538574,0,2042,2042,0,0,0,1191,944,2,3,4,4,3,3,1,3,4,4,3,4,4,4,4,4
36,0,4348.05127,4344.974121,4343.94873,4343.436035,4341.384277,4340.358887,4332.153809,4343.436035,4332.666504,4332.153809,4335.743652,4321.384277,4343.94873,4344.974121,0,2041,2043,0,0,0,1191,952,2,3,4,4,3,3,1,3,4,4,3,4,4,4,4,4
37,0,4122.897461,4122.384277,4121.871582,4121.871582,4120.846191,4120.333008,4111.615234,4123.410156,4104.94873,4105.461426,4108.025391,4091.615234,4118.281738,4117.769043,0,2041,2043,0,0,0,1191,961,2,3,4,4,3,3,1,3,4,4,3,4,4,4,4,4
38,0,4281.12793,4274.974121,4274.974121,4266.256348,4274.461426,4272.410156,4266.256348,4279.589844,4265.743652,4266.769043,4272.922852,4254.974121,4274.974121,4279.589844,0,2042,2043,0,0,0,1191,969,2,3,4,4,3,3,1,3,4,4,3,4,4,4,4,4
39,0,4292.615234,4288.512695,4286.461426,4277.743652,4284.922852,4282.358887,4281.846191,4290.05127,4282.358887,4281.333008,4288,4264.922852,4287.487305,4291.07666,0,2042,2042,0,0,0,1191,977,2,3,4,4,3,3,1,3,4,4,3,4,4,4,4,4
40,0,4089.589844,4086,4086.512695,4083.94873,4082.922852,4080.871582,4075.743652,4087.538574,4075.230469,4073.692383,4082.410156,4060.871582,4082.410156,4085.487305,0,2042,2042,0,0,0,1191,986,2,3,4,4,3,3,1,3,4,4,3,4,4,4,4,4
41,0,4183.717773,4173.461426,4176.025391,4173.461426,4171.410156,4170.897461,4159.615234,4178.589844,4164.230469,4162.692383,4172.94873,4159.102539,4175,4179.102539,0,2042,2042,0,0,0,1191,993,2,3,4,4,3,3,1,3,4,4,3,4,4,4,4,4
42,0,4133.07666,4126.922852,4126.410156,4124.871582,4127.94873,4124.871582,4115.12793,4130,4114.615234,4112.05127,4119.743652,4101.281738,4127.94873,4126.922852,0,2043,2043,0,0,0,1192,0,2,3,4,4,3,3,1,3,4,4,3,4,4,4,4,4
43,0,4203.717773,4197.563965,4197.05127,4197.05127,4198.07666,4192.436035,4182.692383,4198.07666,4188.333008,4184.743652,4191.922852,4173.461426,4198.07666,4203.205078,0,2043,2042,0,0,0,1192,8,2,3,4,4,3,3,1,3,4,4,3,4,4,4,4,4
44,0,4199.307617,4190.07666,4189.563965,4189.05127,4187,4187.512695,4175.205078,4193.666504,4183.410156,4179.307617,4185.974121,4168.025391,4189.05127,4198.794922,0,2044,2043,0,0,0,1192,15,2,3,4,4,3,3,1,3,4,4,3,4,4,4,4,4
45,0,4102.769043,4094.05127,4093.538574,4087.897461,4094.05127,4095.589844,4086.358887,4095.07666,4085.333008,4082.256348,4091.487305,4071.487305,4092.512695,4100.205078,0,2043,2042,0,0,0,1192,22,2,3,4,4,3,3,1,3,4,4,3,4,4,4,4,4
46,0,4300.871582,4292.666504,4292.666504,4280.871582,4293.179199,4290.615234,4284.974121,4288.563965,4288.563965,4288.05127,4297.281738,4277.794922,4293.692383,4307.538574,0,2043,2042,0,0,0,1192,30,2,3,4,4,3,3,1,3,4,4,3,4,4,4,4,4
47,0,4180.794922,4176.179199,4173.615234,4163.358887,4174.12793,4172.07666,4164.897461,4172.07666,4170.025391,4169.512695,4173.615234,4149.512695,4170.025391,4189,0,2044,2042,0,0,0,1192,39,2,3,4,4,3,3,1,3,4,4,3,4,4,4,4,4
48,0,4341.333008,4333.12793,4330.563965,4321.333008,4332.102539,4328.512695,4320.820313,4331.589844,4325.94873,4323.384277,4330.563965,4311.07666,4327.487305,4345.436035,0,2043,2041,0,0,0,1192,47,2,3,4,4,3,3,1,3,4,4,3,4,4,4,4,4
49,0,4250.820313,4239.538574,4239.025391,4227.743652,4242.615234,4236.974121,4229.281738,4242.615234,4240.05127,4234.410156,4246.205078,4224.153809,4242.102539,4256.974121,0,2044,2041,0,0,0,1192,55,2,3,4,4,3,3,1,3,4,4,3,4,4,4,4,4
50,0,4170.794922,4163.102539,4161.05127,4149.256348,4163.102539,4161.05127,4146.692383,4169.769043,4168.743652,4162.07666,4173.358887,4141.563965,4164.12793,4181.563965,0,2043,2043,0,0,0,1192,63,2,3,4,4,3,3,1,3,4,4,3,4,4,4,4,4
51,0,4048.922852,4039.692383,4034.563965,4026.871582,4032.512695,4034.05127,4014.563965,4045.846191,4046.871582,4041.743652,4051.487305,4023.794922,4041.230469,4060.717773,0,2044,2042,0,0,0,1192,70,2,3,4,4,3,3,1,3,4,4,3,4,4,4,4,4
52,0,4248.307617,4241.12793,4234.974121,4236,4233.94873,4235.487305,4221.12793,4243.179199,4241.641113,4235.487305,4245.230469,4219.07666,4240.102539,4255.487305,0,2044,2044,0,0,0,1192,78,2,3,4,4,3,3,1,3,4,4,3,4,4,4,4,4
53,0,4201.410156,4191.153809,4190.641113,4189.615234,4181.922852,4187.563965,4174.230469,4194.230469,4196.794922,4189.615234,4201.922852,4175.769043,4190.12793,4209.102539,0,2045,2045,0,0,0,1192,86,2,3,4,4,3,3,1,3,4,4,3,4,4,4,4,4
54,0,4281.538574,4268.717773,4266.153809,4269.230469,4250.256348,4267.692383,4245.641113,4273.333008,4281.025391,4275.897461,4285.12793,4258.974121,4270.769043,4288.205078,0,2044,2044,0,0,0,1192,95,2,3,4,4,3,3,1,3,4,4,3,4,4,4,4,4
55,0,4239.436035,4231.743652,4223.538574,4237.384277,4207.12793,4229.692383,4206.102539,4231.230469,4235.333008,4232.769043,4236.871582,4212.256348,4229.692383,4242.512695,0,2045,2044,0,0,0,1192,102,2,3,4,4,3,3,1,3,4,4,3,4,4,4,4,4
56,0,4072.461426,4061.692383,4056.563965,4066.820313,4042.205078,4056.563965,4039.641113,4063.743652,4067.333008,4062.717773,4070.410156,4048.358887,4060.153809,4079.12793,0,2044,2044,0,0,0,1192,109,2,3,4,4,3,3,1,3,4,4,3,4,4,4,4,4
57,0,4193.461426,4180.641113,4175.512695,4182.179199,4174.487305,4177.05127,4163.717773,4185.256348,4187.820313,4183.205078,4193.461426,4160.641113,4177.563965,4199.615234,0,2044,2043,0,0,0,1192,117,2,3,4,4,3,3,1,3,4,4,3,4,4,4,4,4
58,0,4059.025391,4042.102539,4038,4046.205078,4043.12793,4043.641113,4030.820313,4047.230469,4047.743652,4044.153809,4053.897461,4026.205078,4045.179199,4060.563965,0,2043,2044,0,0,0,1192,125,2,3,4,4,3,3,1,3,4,4,3,4,4,4,4,4
59,0,4305.384277,4286.922852,4285.897461,4293.589844,4285.897461,4290.512695,4286.410156,4294.615234,4289.487305,4286.922852,4292.563965,4278.205078,4295.641113,4303.846191,0,2045,2044,0,0,0,1192,133,2,3,4,4,3,3,1,3,4,4,3,4,4,4,4,4
60,0,4156.307617,4140.922852,4138.871582,4145.538574,4141.436035,4140.410156,4148.102539,4146.05127,4136.307617,4134.256348,4138.358887,4119.897461,4139.897461,4150.153809,0,2044,2042,0,0,0,1192,142,2,3,4,4,3,3,1,3,4,4,3,4,4,4,4,4
61,0,4200.07666,4182.12793,4178.538574,4188.281738,4184.179199,4179.05127,4184.692383,4183.153809,4182.641113,4178.025391,4188.281738,4165.717773,4181.102539,4195.461426,0,2044,2042,0,0,0,1192,150,2,3,4,4,3,3,1,3,4,4,3,4,4,4,4,4
62,0,4228.461426,4215.641113,4209.487305,4227.436035,4214.615234,4213.589844,4211.025391,4220.769043,4221.794922,4216.666504,4224.871582,4197.692383,4217.692383,4234.102539,0,2043,2043,0,0,0,1192,158,2,3,4,4,3,3,1,3,4,4,3,4,4,4,4,4
63,0,4211.922852,4197.563965,4195.512695,4209.358887,4193.461426,4196.538574,4191.922852,4209.358887,4209.358887,4204.230469,4212.94873,4185.769043,4202.179199,4225.769043,0,2042,2040,0,0,0,1192,165,2,3,4,4,3,3,1,3,4,4,3,4,4,4,4,4
64,0,4293.538574,4275.589844,4273.538574,4282.256348,4269.94873,4270.974121,4275.589844,4284.820313,4291.487305,4285.333008,4297.12793,4268.922852,4283.281738,4305.846191,238,2043,2040,0,0,0,1192,173,2,3,4,4,3,3,1,3,4,4,3,4,4,4,4,4
65,0,4075.436035,4063.641113,4057.487305,4069.794922,4058.512695,4056.461426,4065.179199,4065.692383,4074.410156,4070.307617,4080.563965,4047.230469,4067.230469,4085.179199,315,2044,2040,0,0,0,1192,180,2,3,4,4,3,3,1,3,4,4,3,4,4,4,4,4
66,0,4255,4238.589844,4236.025391,4245.256348,4234.487305,4232.94873,4237.05127,4244.230469,4249.871582,4246.281738,4256.025391,4230.897461,4243.717773,4266.281738,399,2043,2041,0,0,0,1192,189,2,3,4,4,3,3,1,3,4,4,3,4,4,4,4,4
67,0,4318.461426,4303.589844,4298.974121,4303.589844,4300.512695,4300.512695,4303.07666,4309.230469,4310.256348,4306.153809,4315.384277,4290.256348,4306.666504,4329.230469,436,2042,2042,0,0,0,1192,197,2,3,4,4,3,3,1,3,4,4,3,4,4,4,4,4
68,0,4158.512695,4148.769043,4140.563965,4142.615234,4146.717773,4142.102539,4149.281738,4147.743652,4152.871582,4150.820313,4162.102539,4133.897461,4150.307617,4171.846191,345,2042,2042,0,0,0,1192,205,2,3,4,4,3,3,1,3,4,4,3,4,4,4,4,4
69,0,4181.666504,4164.743652,4160.641113,4155.512695,4162.692383,4158.07666,4164.230469,4164.743652,4173.974121,4172.436035,4181.666504,4156.538574,4168.333008,4192.436035,391,2043,2044,0,0,0,1192,213,2,3,4,4,3,3,1,3,4,4,3,4,4,4,4,4
70,0,4348.05127,4331.12793,4328.05127,4319.333008,4330.615234,4332.153809,4330.615234,4331.641113,4337.281738,4330.615234,4339.333008,4313.692383,4330.102539,4351.641113,98,2046,2044,0,0,0,1192,221,2,3,4,4,3,3,1,3,4,4,3,4,4,4,4,4
71,0,4185.563965,4169.666504,4168.12793,4158.897461,4171.717773,4171.717773,4168.12793,4171.205078,4178.897461,4169.666504,4183,4159.922852,4171.717773,4195.307617,305,2046,2046,0,0,0,1192,229,2,3,4,4,3,3,1,2,4,4,3,4,4,4,4,4
72,0,4178.025391,4162.12793,4162.12793,4150.846191,4165.205078,4160.07666,4164.692383,4166.743652,4172.897461,4167.769043,4178.538574,4151.358887,4167.769043,4191.358887,881,2046,2045,0,0,0,1192,236,2,3,4,4,3,3,1,2,4,4,3,4,4,4,4,4
73,0,4136.102539,4117.641113,4119.692383,4102.769043,4120.717773,4118.153809,4120.205078,4122.769043,4129.94873,4126.358887,4136.102539,4105.846191,4122.769043,4145.846191,850,2046,2044,0,0,0,1192,243,2,3,4,4,3,3,1,2,4,4,3,4,4,4,4,4
74,0,4046.666504,4027.692383,4028.205078,4013.846191,4028.717773,4030.769043,4024.102539,4031.281738,4045.641113,4037.94873,4050.256348,4023.589844,4034.358887,4061.025391,300,2045,2043,0,0,0,1192,251,2,3,4,4,3,3,1,2,4,4,3,4,4,4,4,4
75,0,4371.897461,4364.717773,4358.563965,4354.974121,4358.563965,4360.615234,4360.615234,4362.666504,4367.794922,4360.615234,4369.333008,4345.230469,4362.153809,4387.281738,527,2045,2043,0,0,0,1192,259,2,3,4,4,3,3,1,2,4,4,3,4,4,4,4,4
76,0,4116,4107.281738,4100.615234,4102.153809,4097.538574,4100.102539,4105.743652,4104.205078,4106.256348,4103.692383,4111.897461,4091.384277,4105.743652,4129.333008,933,2045,2044,0,0,0,1192,267,2,3,4,4,3,3,1,2,4,4,3,4,4,4,4,4
77,0,4165.641113,4153.333008,4145.641113,4149.230469,4150.256348,4150.256348,4149.230469,4157.436035,4164.615234,4162.05127,4172.307617,4142.05127,4154.871582,4183.07666,475,2044,2044,0,0,0,1192,275,2,3,4,4,3,3,1,2,4,4,3,4,4,4,4,4
78,0,4299.589844,4291.384277,4281.641113,4290.871582,4292.922852,4289.333008,4283.692383,4298.563965,4306.769043,4299.589844,4311.897461,4277.025391,4290.358887,4325.230469,300,2042,2045,0,0,0,1192,283,2,3,4,4,3,3,1,2,4,4,3,4,4,4,4,4
79,0,4173.07666,4164.871582,4154.615234,4170.512695,4161.794922,4161.281738,4160.769043,4167.436035,4177.692383,4172.563965,4181.281738,4153.589844,4165.897461,4199.743652,527,2041,2045,0,0,0,1192,291,2,3,4,4,3,3,1,2,4,4,3,4,4,4,4,4
80,0,4279.436035,4274.820313,4260.461426,4283.025391,4269.179199,4271.743652,4272.769043,4274.820313,4283.538574,4280.974121,4284.563965,4254.307617,4272.256348,4300.974121,933,2043,2044,0,0,0,1192,299,2,3,4,4,3,3,1,2,4,4,3,4,4,4,4,4
81,0,4075.589844,4066.871582,4058.153809,4072.512695,4059.692383,4064.820313,4057.641113,4071.487305,4083.794922,4077.12793,4086.358887,4055.589844,4065.333008,4101.743652,475,2044,2044,0,0,0,1192,306,2,3,4,4,3,3,1,2,4,4,3,4,4,4,4,4
82,0,4023.589844,4011.281738,4009.230469,4012.307617,4004.102539,4008.717773,4002.05127,4014.871582,4028.205078,4021.538574,4031.794922,4003.07666,4012.820313,4049.230469,300,2043,2044,0,0,0,1192,314,2,3,4,4,3,3,1,2,4,4,3,4,4,4,4,4
83,0,4227.410156,4217.666504,4213.05127,4216.12793,4207.410156,4213.05127,4212.025391,4212.025391,4216.641113,4212.025391,4217.666504,4195.102539,4212.538574,4237.153809,527,2041,2041,0,0,0,1192,322,2,3,4,4,3,3,1,2,4,4,3,4,4,4,4,4
84,0,4132,4118.666504,4110.461426,4120.205078,4097.12793,4115.589844,4110.461426,4113.538574,4111.487305,4107.897461,4114.05127,4098.666504,4113.025391,4133.025391,933,2039,2039,0,0,0,1192,331,2,3,4,4,3,3,1,2,4,4,3,4,4,4,4,4
85,0,4149.410156,4138.641113,4132.487305,4149.410156,4115.563965,4141.205078,4129.410156,4139.666504,4140.179199,4135.563965,4143.769043,4117.615234,4136.07666,4159.666504,475,2040,2042,0,0,0,1192,339,2,3,4,4,3,3,1,2,4,4,3,4,4,4,4,4
86,0,4034.410156,4025.692383,4023.12793,4035.436035,4009.281738,4024.666504,4014.922852,4026.717773,4033.384277,4028.256348,4038,4011.333008,4025.692383,4051.333008,300,2040,2042,0,0,0,1192,347,2,3,4,4,3,3,1,2,4,4,3,4,4,4,4,4
87,0,4159.333008,4153.179199,4147.025391,4157.281738,4140.871582,4147.025391,4142.410156,4151.641113,4151.12793,4146.512695,4155.230469,4136.256348,4152.666504,4172.153809,527,2041,2044,0,0,0,1192,355,2,3,4,4,3,3,1,2,4,4,3,4,4,4,4,4
88,0,4224.641113,4225.153809,4216.436035,4231.820313,4217.974121,4219.512695,4217.461426,4221.563965,4213.871582,4209.769043,4219.512695,4200.538574,4223.102539,4241.05127,933,2042,2044,0,0,0,1192,362,2,3,4,4,3,3,1,2,4,4,3,4,4,4,4,4
89,0,4201.153809,4201.153809,4196.025391,4211.410156,4197.563965,4198.07666,4195,4199.102539,4197.05127,4192.436035,4202.692383,4187.820313,4201.666504,4224.743652,475,2043,2046,0,0,0,1192,370,2,3,4,4,3,3,1,2,4,4,3,4,4,4,4,4
90,0,4163.102539,4163.615234,4158.487305,4172.846191,4160.025391,4163.615234,4157.974121,4161.563965,4151.307617,4148.743652,4152.846191,4140.025391,4157.974121,4175.922852,300,2043,2046,0,0,0,1192,378,2,3,4,4,3,3,1,2,4,4,3,4,4,4,4,4
91,0,4190.641113,4190.12793,4187.05127,4200.897461,4189.615234,4188.589844,4183.974121,4185,4169.102539,4168.07666,4173.717773,4167.563965,4185,4198.846191,527,2044,2045,0,0,0,1192,386,2,3,4,4,3,3,1,2,4,4,3,4,4,4,4,4
92,0,4136.12793,4138.179199,4132.025391,4151,4138.179199,4131.512695,4129.974121,4131.512695,4125.871582,4120.743652,4129.974121,4120.743652,4135.102539,4153.563965,933,2044,2044,0,0,0,1192,394,2,3,4,4,3,3,1,2,4,4,3,4,4,4,4,4
93,0,4162.615234,4169.281738,4158,4177.487305,4164.666504,4159.025391,4160.563965,4161.07666,4156.974121,4152.871582,4160.05127,4140.05127,4159.025391,4178.512695,475,2044,2043,0,0,0,1192,402,2,3,4,4,3,3,1,2,4,4,3,4,4,4,4,4
94,0,4065.692383,4068.256348,4061.07666,4073.384277,4062.615234,4059.538574,4056.974121,4063.12793,4056.461426,4055.436035,4060.563965,4044.666504,4063.641113,4080.563965,300,2044,2041,0,0,0,1192,410,2,3,4,4,3,3,1,2,4,4,3,4,4,4,4,4
95,0,4080,4084.615234,4080.512695,4094.358887,4084.102539,4079.487305,4076.410156,4083.589844,4076.922852,4070.769043,4076.922852,4058.974121,4085.12793,4097.94873,527,2043,2040,0,0,0,1192,418,2,3,4,4,3,3,1,2,4,4,3,4,4,4,4,4
96,0,4207.512695,4210.07666,4208.025391,4224.436035,4211.615234,4207.512695,4206.487305,4212.641113,4204.436035,4193.666504,4204.94873,4184.94873,4211.102539,4222.897461,933,2043,2043,0,0,0,1192,426,2,3,4,4,3,3,1,2,4,4,3,4,4,4,4,4
97,0,4139.512695,4140.538574,4135.922852,4143.102539,4139,4136.436035,4135.922852,4137.974121,4123.102539,4117.461426,4126.179199,4113.358887,4138.487305,4148.743652,475,2043,2042,0,0,0,1192,434,2,3,4,4,3,3,1,2,4,4,3,4,4,4,4,4
98,0,4194.897461,4204.641113,4194.384277,4193.358887,4201.563965,4196.94873,4194.897461,4193.358887,4171.820313,4169.256348,4172.846191,4162.589844,4193.358887,4199,300,2043,2044,0,0,0,1192,441,2,3,4,4,3,3,1,2,4,4,3,4,4,4,4,4
99,0,4340.615234,4347.281738,4339.589844,4345.743652,4344.205078,4339.07666,4335.487305,4337.538574,4325.743652,4317.538574,4327.281738,4314.974121,4339.589844,4349.333008,527,2043,2045,0,0,0,1192,449,2,3,4,4,3,3,1,2,4,4,3,4,4,4,4,4
100,0,4375.025391,4381.179199,4375.538574,4391.436035,4380.153809,4375.538574,4375.025391,4374,4361.179199,4352.974121,4364.256348,4349.897461,4374,4386.307617,933,2043,2046,0,0,0,1192,457,2,3,4,4,3,3,1,2,4,4,3,4,4,4,4,4
101,0,4098.384277,4109.153809,4101.974121,4116.846191,4107.102539,4104.538574,4099.922852,4096.846191,4077.358887,4072.230469,4082.487305,4075.820313,4097.871582,4108.641113,475,2044,2045,0,0,0,1192,465,2,3,4,4,3,3,1,2,4,4,3,4,4,4,4,4
102,0,4221.461426,4234.281738,4223,4238.384277,4228.641113,4229.153809,4217.871582,4218.897461,4206.589844,4201.974121,4210.692383,4203.512695,4226.07666,4232.743652,300,2044,2046,0,0,0,1192,472,2,3,4,4,3,3,1,2,4,4,3,4,4,4,4,4
103,0,4283.436035,4300.871582,4286.512695,4306.512695,4297.794922,4293.179199,4284.461426,4289.589844,4282.410156,4280.358887,4285.487305,4263.94873,4289.07666,4300.871582,527,2046,2047,0,0,0,1192,480,2,3,4,4,3,3,1,2,4,4,3,4,4,4,4,4
104,0,4215.05127,4224.794922,4216.589844,4229.410156,4222.230469,4213,4210.94873,4218.12793,4211.974121,4212.487305,4216.589844,4201.717773,4215.563965,4234.538574,933,2045,2046,0,0,0,1192,489,2,3,4,4,3,3,1,2,4,4,3,4,4,4,4,4
105,0,4317.94873,4322.563965,4320.512695,4329.230469,4320.512695,4315.384277,4315.384277,4315.897461,4305.641113,4304.102539,4307.692383,4298.461426,4320.512695,4329.230469,475,2045,2045,0,0,0,1192,496,2,3,4,4,3,3,1,2,4,4,3,4,4,4,4,4
106,0,4132.436035,4137.05127,4136.025391,4146.281738,4138.07666,4132.94873,4130.897461,4131.410156,4118.07666,4116.025391,4123.717773,4111.922852,4137.05127,4142.692383,300,2045,2044,0,0,0,1192,504,2,3,4,4,3,3,1,2,4,4,3,4,4,4,4,4
107,0,4224.589844,4228.179199,4223.563965,4235.358887,4227.153809,4218.94873,4217.922852,4224.589844,4213.820313,4211.769043,4223.563965,4209.717773,4225.615234,4237.410156,527,2046,2043,0,0,0,1192,511,2,3,4,4,3,3,1,2,4,4,3,4,4,4,4,4
108,0,4110.436035,4120.179199,4113,4125.307617,4115.563965,4110.436035,4113,4116.07666,4104.281738,4100.179199,4108.384277,4088.897461,4111.974121,4116.589844,933,2048,2039,0,0,0,1192,519,2,3,4,4,3,3,1,2,4,4,3,4,4,4,4,4
109,0,4151.512695,4157.666504,4152.025391,4156.12793,4153.05127,4150.487305,4151,4151.512695,4139.717773,4138.179199,4143.820313,4128.436035,4153.05127,4151,475,2048,2040,0,0,0,1192,527,2,3,4,4,3,3,1,2,4,4,3,4,4,4,4,4
110,0,4026.05127,4033.743652,4024,4025.538574,4029.641113,4025.538574,4019.384277,4022.461426,4006.05127,4004.512695,4011.692383,3997.846191,4024,4022.974121,300,2048,2039,0,0,0,1192,535,2,3,4,4,3,3,1,2,4,4,3,4,4,4,4,4
111,0,4234.461426,4248.307617,4238.563965,4240.102539,4243.692383,4238.563965,4231.384277,4232.410156,4216.512695,4209.846191,4219.07666,4204.205078,4233.436035,4232.410156,527,2046,2040,0,0,0,1192,543,2,3,4,4,3,3,1,2,4,4,3,4,4,4,4,4
112,0,4174.897461,4189.256348,4183.102539,4170.794922,4182.589844,4180.025391,4177.461426,4173.358887,4160.538574,4155.922852,4163.615234,4153.358887,4180.025391,4173.358887,933,2047,2041,0,0,0,1192,551,2,3,4,4,3,3,1,2,4,4,3,4,4,4,4,4
113,0,4314.769043,4330.153809,4324,4301.94873,4325.538574,4325.025391,4321.94873,4316.307617,4293.230469,4293.743652,4299.897461,4288.615234,4317.846191,4305.538574,475,2045,2043,0,0,0,1192,559,2,3,4,4,3,3,1,2,4,4,3,4,4,4,4,4
114,0,4212.871582,4225.179199,4222.615234,4205.179199,4218.512695,4223.641113,4215.436035,4218.512695,4193.384277,4191.846191,4200.563965,4188.769043,4213.897461,4204.666504,300,2043,2045,0,0,0,1192,567,2,3,4,4,3,3,1,2,4,4,3,4,4,4,4,4
115,0,4184.384277,4199.256348,4192.589844,4182.846191,4185.410156,4198.743652,4192.07666,4194.641113,4176.692383,4172.07666,4175.666504,4161.820313,4190.025391,4180.794922,527,2043,2045,0,0,0,1192,574,2,3,4,4,3,3,1,2,4,4,3,4,4,4,4,4
116,0,4187.871582,4205.820313,4195.05127,4182.230469,4187.871582,4202.743652,4199.666504,4192.487305,4172.487305,4169.922852,4172.487305,4162.230469,4189.410156,4178.641113,933,2045,2045,0,0,0,1192,582,2,3,4,4,3,3,1,2,4,4,3,4,4,4,4,4
117,0,4319.487305,4330.769043,4326.666504,4310.769043,4310.769043,4327.179199,4321.025391,4315.897461,4299.487305,4294.358887,4306.153809,4296.922852,4315.384277,4308.717773,475,2045,2045,0,0,0,1192,590,2,3,4,4,3,3,1,2,4,4,3,4,4,4,4,4
118,0,4074.871582,4088.717773,4084.615234,4077.94873,4075.897461,4087.179199,4080.512695,4075.897461,4066.153809,4059.487305,4070.256348,4051.281738,4075.897461,4068.205078,300,2043,2042,0,0,0,1192,598,2,3,4,4,3,3,1,2,4,4,3,4,4,4,4,4
119,0,4273.487305,4288.871582,4280.153809,4270.410156,4281.692383,4282.205078,4276.05127,4271.436035,4261.692383,4257.07666,4262.205078,4252.461426,4275.538574,4262.717773,527,2042,2041,0,0,0,1192,607,2,3,4,4,3,3,1,2,4,4,3,4,4,4,4,4
120,0,4350.461426,4363.794922,4357.641113,4335.07666,4358.666504,4354.563965,4347.897461,4345.846191,4326.358887,4323.794922,4327.384277,4323.794922,4345.846191,4331.487305,933,2042,2038,0,0,0,1192,615,2,3,4,4,3,3,1,2,4,4,3,4,4,4,4,4
121,0,4248.743652,4263.102539,4262.07666,4241.05127,4261.05127,4257.974121,4253.871582,4245.153809,4215.922852,4215.410156,4220.025391,4213.358887,4241.563965,4225.666504,475,2042,2039,0,0,0,1192,623,2,3,4,4,3,3,1,2,4,4,3,4,4,4,4,4
122,0,4201.358887,4208.538574,4209.563965,4197.256348,4209.05127,4205.461426,4205.461426,4193.153809,4166.487305,4163.922852,4169.563965,4170.589844,4197.769043,4177.769043,300,2042,2042,0,0,0,1192,630,2,3,4,4,3,3,1,2,4,4,3,4,4,4,4,4
123,0,4166.897461,4175.615234,4171,4161.769043,4172.538574,4167.922852,4167.922852,4161.769043,4139.717773,4134.07666,4141.769043,4132.025391,4165.358887,4146.384277,527,2042,2042,0,0,0,1192,637,2,3,4,4,3,3,1,2,4,4,3,4,4,4,4,4
124,0,4075.384277,4087.692383,4083.589844,4069.230469,4082.563965,4078.974121,4074.358887,4076.410156,4057.436035,4052.820313,4064.615234,4046.666504,4076.922852,4065.12793,933,2042,2043,0,0,0,1192,645,2,3,4,4,3,3,1,2,4,4,3,4,4,4,4,4
125,0,4113.820313,4129.205078,4124.589844,4112.794922,4124.589844,4119.974121,4117.922852,4116.897461,4098.94873,4095.871582,4102.025391,4092.281738,4118.94873,4104.589844,475,2042,2042,0,0,0,1192,653,2,3,4,4,3,3,1,2,4,4,3,4,4,4,4,4
126,0,4142.333008,4158.743652,4154.12793,4145.410156,4155.153809,4149.512695,4150.538574,4142.333008,4124.384277,4119.769043,4123.871582,4114.641113,4143.358887,4125.922852,300,2042,2043,0,0,0,1192,661,2,3,4,4,3,3,1,2,4,4,3,4,4,4,4,4
127,0,4331.025391,4339.230469,4337.692383,4321.794922,4334.102539,4332.05127,4329.487305,4321.281738,4306.410156,4300.769043,4310,4300.256348,4324.358887,4312.05127,527,2042,2044,0,0,0,1192,669,2,3,4,4,3,3,1,2,4,4,3,4,4,4,4,4
128,0,4182.94873,4195.256348,4185.512695,4176.281738,4187.563965,4186.538574,4181.922852,4176.281738,4154.743652,4151.666504,4156.794922,4146.025391,4177.307617,4161.410156,933,2042,2044,0,0,0,1192,677,2,3,4,4,3,3,1,2,4,4,3,4,4,4,4,4
0,0,4095.563965,4108.384277,4096.07666,4093.512695,4098.641113,4097.615234,4088.897461,4092.487305,4072.487305,4071.461426,4075.563965,4062.743652,4091.461426,4075.05127,260,2043,2044,0,0,0,1192,685,2,3,4,4,3,3,1,2,4,4,3,4,4,4,4,4
1,0,4130.589844,4136.230469,4131.615234,4125.974121,4130.07666,4125.461426,4119.307617,4125.461426,4111.102539,4109.05127,4118.281738,4103.410156,4127.512695,4114.692383,315,2043,2044,0,0,0,1192,693,2,3,4,4,3,3,1,2,4,4,3,4,4,4,4,4
2,0,4350.358887,4362.153809,4357.538574,4352.922852,4359.589844,4351.384277,4352.410156,4347.281738,4329.333008,4324.717773,4333.436035,4319.589844,4346.256348,4333.94873,399,2044,2042,0,0,0,1192,701,2,3,4,4,3,3,1,2,4,4,3,4,4,4,4,4
3,0,4239.563965,4250.333008,4244.692383,4240.589844,4246.743652,4243.153809,4238.025391,4232.897461,4220.589844,4215.974121,4223.666504,4213.922852,4232.384277,4225.717773,436,2042,2043,0,0,0,1192,709,2,3,4,4,3,3,1,2,4,4,3,4,4,4,4,4
4,0,4155.102539,4163.307617,4157.666504,4153.563965,4159.717773,4160.230469,4146.897461,4150.487305,4142.794922,4139.717773,4145.358887,4126.897461,4151,4143.307617,345,2042,2045,0,0,0,1192,717,2,3,4,4,3,3,1,2,4,4,3,4,4,4,4,4
5,0,4220.487305,4228.179199,4222.538574,4218.436035,4224.589844,4221.512695,4216.384277,4218.436035,4208.179199,4204.589844,4211.256348,4193.307617,4219.974121,4207.666504,391,2042,2043,0,0,0,1192,725,2,3,4,4,3,3,1,2,4,4,3,4,4,4,4,4
6,0,4157.461426,4164.12793,4158.487305,4152.333008,4157.461426,4155.410156,4159.512695,4152.846191,4139.512695,4134.897461,4142.589844,4133.358887,4155.922852,4143.615234,98,2041,2044,0,0,0,1192,733,2,3,4,4,3,3,1,2,4,4,3,4,4,4,4,4
7,0,4124.922852,4135.179199,4131.07666,4122.358887,4130.563965,4128,4131.07666,4122.358887,4104.922852,4098.769043,4105.94873,4093.641113,4122.358887,4110.563965,329,2040,2043,0,0,0,1192,741,2,3,4,4,3,3,1,3,4,4,3,4,4,4,4,4
8,0,4109.05127,4117.256348,4113.666504,4110.589844,4115.717773,4109.05127,4106.487305,4107.512695,4098.794922,4092.12793,4102.897461,4088.025391,4110.589844,4100.333008,884,2039,2043,0,0,0,1192,749,2,3,4,4,3,3,1,3,4,4,3,4,4,4,4,4
9,0,4267.897461,4279.179199,4269.436035,4276.615234,4277.12793,4272.512695,4269.94873,4269.94873,4265.333008,4260.205078,4270.461426,4249.436035,4273.538574,4262.256348,853,2040,2043,0,0,0,1192,756,2,3,4,4,3,3,1,3,4,4,3,4,4,4,4,4
10,0,4159.871582,4168.589844,4163.974121,4166.025391,4166.025391,4162.436035,4163.974121,4158.846191,4150.641113,4144.487305,4153.717773,4134.743652,4161.410156,4151.666504,298,2041,2043,0,0,0,1192,764,2,3,4,4,3,3,1,3,4,4,3,4,4,4,4,4
11,0,4166.05127,4170.666504,4170.666504,4166.563965,4164.512695,4161.94873,4163.487305,4164,4155.794922,4148.615234,4156.820313,4139.897461,4165.025391,4158.871582,569,2041,2045,0,0,0,1192,772,2,3,4,4,3,3,1,3,4,4,3,4,4,4,4,4
12,0,4026.05127,4036.307617,4030.666504,4027.07666,4030.153809,4029.12793,4027.07666,4025.025391,4018.358887,4012.717773,4019.897461,3996.307617,4022.461426,4017.846191,933,2041,2045,0,0,0,1192,780,2,3,4,4,3,3,1,3,4,4,3,4,4,4,4,4
13,0,4138.743652,4144.384277,4139.256348,4134.12793,4138.230469,4135.153809,4131.563965,4131.05127,4126.94873,4121.307617,4131.563965,4113.102539,4131.05127,4127.974121,470,2042,2044,0,0,0,1192,788,2,3,4,4,3,3,1,3,4,4,3,4,4,4,4,4
14,0,4312.717773,4315.794922,4309.641113,4310.153809,4309.641113,4304.512695,4305.538574,4308.102539,4301.94873,4296.820313,4304,4283.487305,4307.589844,4299.384277,298,2043,2043,0,0,0,1192,796,2,3,4,4,3,3,1,3,4,4,3,4,4,4,4,4
15,0,4099.563965,4107.769043,4100.07666,4103.666504,4103.153809,4099.05127,4100.07666,4099.05127,4091.358887,4089.820313,4095.461426,4071.871582,4097.512695,4088.281738,569,2043,2044,0,0,0,1192,804,2,3,4,4,3,3,1,3,4,4,3,4,4,4,4,4
16,0,4125.563965,4133.769043,4127.615234,4129.153809,4129.153809,4129.153809,4123,4124.025391,4116.846191,4115.307617,4123.512695,4106.07666,4121.974121,4117.871582,0,2043,2042,0,0,0,1192,812,2,3,4,4,3,3,1,3,4,4,3,4,4,4,4,4
17,0,4157.512695,4168.281738,4159.05127,4165.717773,4166.743652,4165.717773,4157.512695,4158.025391,4146.230469,4141.102539,4148.794922,4130.846191,4151.358887,4145.717773,0,2044,2041,0,0,0,1192,820,2,3,4,4,3,3,1,3,4,4,3,4,4,4,4,4
18,0,4341.692383,4348.358887,4341.179199,4345.281738,4346.307617,4345.794922,4339.641113,4338.102539,4332.461426,4330.410156,4337.07666,4316.563965,4337.589844,4332.974121,0,2045,2042,0,0,0,1192,827,2,3,4,4,3,3,1,3,4,4,3,4,4,4,4,4
19,0,4134.205078,4138.820313,4134.717773,4134.205078,4134.205078,4135.230469,4130.615234,4131.641113,4127.538574,4129.589844,4135.230469,4108.563965,4131.641113,4128.05127,0,2045,2042,0,0,0,1192,834,2,3,4,4,3,3,1,3,4,4,3,4,4,4,4,4
20,0,4222.12793,4229.307617,4223.666504,4226.230469,4222.641113,4221.615234,4216.487305,4220.589844,4214.436035,4208.794922,4219.563965,4194.436035,4217.512695,4213.410156,0,2046,2044,0,0,0,1192,842,2,3,4,4,3,3,1,3,4,4,3,4,4,4,4,4
21,0,4315.12793,4321.794922,4314.615234,4315.641113,4316.666504,4314.615234,4308.974121,4310.512695,4307.436035,4297.179199,4310.512695,4294.102539,4314.102539,4308.461426,0,2045,2043,0,0,0,1192,850,2,3,4,4,3,3,1,3,4,4,3,4,4,4,4,4
22,0,4137.974121,4148.743652,4141.563965,4141.563965,4148.743652,4148.230469,4140.025391,4136.94873,4126.692383,4124.641113,4129.769043,4109.769043,4137.461426,4131.307617,0,2046,2044,0,0,0,1192,858,2,3,4,4,3,3,1,3,4,4,3,4,4,4,4,4
23,0,4185.102539,4192.281738,4187.153809,4189.205078,4189.717773,4189.205078,4180.487305,4183.05127,4170.230469,4168.179199,4175.871582,4154.846191,4181.512695,4177.922852,0,2047,2043,0,0,0,1192,866,2,3,4,4,3,3,1,3,4,4,3,4,4,4,4,4
24,0,4336.563965,4341.692383,4336.05127,4342.205078,4336.563965,4332.974121,4332.974121,4334,4325.794922,4319.12793,4328.871582,4310.922852,4336.563965,4331.436035,0,2047,2043,0,0,0,1192,874,2,3,4,4,3,3,1,3,4,4,3,4,4,4,4,4
25,0,4017.333008,4029.12793,4025.025391,4035.794922,4027.589844,4024,4026.563965,4020.410156,4011.179199,4009.12793,4012.717773,3996.820313,4020.410156,4014.769043,0,2048,2042,0,0,0,1192,883,2,3,4,4,3,3,1,3,4,4,3,4,4,4,4,4
26,0,4066.461426,4076.717773,4076.205078,4085.94873,4074.666504,4072.615234,4068.512695,4068.512695,4057.743652,4057.230469,4062.871582,4049.538574,4066.461426,4064.410156,0,2047,2039,0,0,0,1192,890,2,3,4,4,3,3,1,3,4,4,3,4,4,4,4,4
27,0,4193.410156,4208.281738,4204.179199,4211.358887,4201.102539,4200.589844,4197,4199.563965,4187.256348,4182.641113,4190.846191,4171.871582,4194.94873,4190.333008,0,2048,2039,0,0,0,1192,898,2,3,4,4,3,3,1,3,4,4,3,4,4,4,4,4
28,0,4315.384277,4331.281738,4325.641113,4326.153809,4325.12793,4325.12793,4322.05127,4323.07666,4313.333008,4311.281738,4316.922852,4299.487305,4318.461426,4312.820313,0,2048,2040,0,0,0,1192,906,2,3,4,4,3,3,1,3,4,4,3,4,4,4,4,4
29,0,4116.922852,4131.281738,4126.666504,4123.07666,4128.717773,4129.743652,4122.05127,4123.589844,4114.358887,4114.358887,4118.461426,4099.487305,4120,4115.384277,0,2048,2041,0,0,0,1192,914,2,3,4,4,3,3,1,3,4,4,3,4,4,4,4,4
30,0,4189,4203.358887,4197.717773,4197.205078,4200.794922,4199.769043,4191.05127,4193.102539,4183.871582,4179.256348,4187.461426,4162.846191,4191.05127,4187.461426,0,2048,2043,0,0,0,1192,921,2,3,4,4,3,3,1,3,4,4,3,4,4,4,4,4
31,0,4170.025391,4179.256348,4175.666504,4176.692383,4174.12793,4173.102539,4167.974121,4172.07666,4165.922852,4159.256348,4169.512695,4152.589844,4173.615234,4169,0,2046,2044,0,0,0,1192,929,2,3,4,4,3,3,1,3,4,4,3,4,4,4,4,4
32,0,4153.871582,4164.641113,4162.07666,4165.153809,4160.538574,4159,4159.512695,4160.025391,4152.846191,4148.230469,4155.410156,4136.436035,4156.94873,4151.307617,0,2047,2044,0,0,0,1192,937,2,3,4,4,3,3,1,3,4,4,3,4,4,4,4,4
33,0,4100.563965,4109.794922,4107.230469,4110.820313,4105.692383,4102.102539,4104.153809,4104.666504,4105.179199,4099.538574,4110.307617,4084.153809,4102.102539,4102.102539,0,2045,2045,0,0,0,1192,945,2,3,4,4,3,3,1,3,4,4,3,4,4,4,4,4
34,0,4269.12793,4271.692383,4269.12793,4275.281738,4266.563965,4264,4265.538574,4269.641113,4273.743652,4267.07666,4276.307617,4252.205078,4269.641113,4270.666504,0,2044,2044,0,0,0,1192,953,2,3,4,4,3,3,1,3,4,4,3,4,4,4,4,4
35,0,4117.384277,4121.487305,4121.487305,4131.743652,4119.94873,4116.871582,4118.922852,4120.974121,4110.717773,4106.102539,4112.769043,4092.769043,4116.358887,4113.281738,0,2044,2042,0,0,0,1192,961,2,3,4,4,3,3,1,3,4,4,3,4,4,4,4,4
36,0,4117.025391,4119.07666,4121.641113,4131.897461,4117.538574,4113.94873,4116,4116.512695,4102.666504,4101.12793,4111.384277,4096,4116.512695,4114.974121,0,2043,2043,0,0,0,1192,969,2,3,4,4,3,3,1,3,4,4,3,4,4,4,4,4
37,0,4169.512695,4173.615234,4173.102539,4187.974121,4171.05127,4167.974121,4171.563965,4165.922852,4157.717773,4156.692383,4163.358887,4144.897461,4170.025391,4168.487305,0,2042,2043,0,0,0,1192,977,2,3,4,4,3,3,1,3,4,4,3,4,4,4,4,4
38,0,4124.94873,4128.538574,4131.102539,4146.487305,4127.512695,4124.94873,4129.05127,4121.358887,4117.769043,4109.563965,4117.256348,4100.846191,4123.410156,4123.410156,0,2042,2042,0,0,0,1192,985,2,3,4,4,3,3,1,3,4,4,3,4,4,4,4,4
39,0,4174.487305,4178.07666,4179.615234,4194.487305,4176.025391,4172.94873,4175.512695,4175.512695,4171.410156,4161.666504,4170.897461,4155,4175,4177.05127,0,2044,2042,0,0,0,1192,993,2,3,4,4,3,3,1,3,4,4,3,4,4,4,4,4
40,0,4231.436035,4241.179199,4235.538574,4252.974121,4240.153809,4234,4234.512695,4237.589844,4225.281738,4222.205078,4226.820313,4207.846191,4233.487305,4232.461426,0,2042,2043,0,0,0,1193,1,2,3,4,4,3,3,1,3,4,4,3,4,4,4,4,4
41,0,4163.461426,4170.12793,4169.102539,4180.897461,4170.641113,4165.512695,4165.512695,4164.487305,4155.256348,4151.666504,4158.846191,4145.512695,4164.487305,4162.436035,0,2042,2042,0,0,0,1193,9,2,3,4,4,3,3,1,3,4,4,3,4,4,4,4,4
42,0,4044.820313,4052.512695,4054.05127,4063.794922,4052,4049.436035,4050.974121,4044.820313,4036.102539,4028.410156,4037.641113,4023.281738,4047.897461,4042.769043,0,2042,2043,0,0,0,1193,17,2,3,4,4,3,3,1,3,4,4,3,4,4,4,4,4
43,0,4132.333008,4142.589844,4142.07666,4150.794922,4142.07666,4136.94873,4136.436035,4131.820313,4121.05127,4115.410156,4121.563965,4107.205078,4134.897461,4132.333008,0,2042,2044,0,0,0,1193,24,2,3,4,4,3,3,1,3,4,4,3,4,4,4,4,4
44,0,4207.922852,4214.589844,4216.12793,4222.281738,4217.666504,4213.05127,4211,4206.384277,4199.205078,4194.589844,4198.179199,4189.461426,4208.436035,4209.461426,0,2042,2044,0,0,0,1193,32,2,3,4,4,3,3,1,3,4,4,3,4,4,4,4,4
45,0,4146.743652,4157,4157.512695,4168.794922,4161.615234,4160.07666,4158.538574,4152.384277,4141.102539,4136.487305,4141.615234,4128.281738,4147.256348,4146.743652,0,2041,2043,0,0,0,1193,39,2,3,4,4,3,3,1,3,4,4,3,4,4,4,4,4
46,0,3986.307617,3995.025391,3995.025391,4002.717773,3995.025391,3992.461426,3993.487305,3990.922852,3976.05127,3973.487305,3980.666504,3970.410156,3989.384277,3986.820313,0,2043,2044,0,0,0,1193,47,2,3,4,4,3,3,1,3,4,4,3,4,4,4,4,4
47,0,4125.333008,4132.512695,4132,4130.974121,4133.538574,4130.974121,4137.641113,4124.307617,4109.436035,4106.871582,4108.922852,4101.743652,4127.384277,4121.230469,0,2043,2044,0,0,0,1193,55,2,3,4,4,3,3,1,3,4,4,3,4,4,4,4,4
48,0,4088.358887,4096.05127,4097.589844,4094,4100.666504,4099.12793,4104.769043,4086.820313,4072.461426,4069.384277,4072.461426,4062.205078,4086.307617,4084.256348,0,2043,2044,0,0,0,1193,64,2,3,4,4,3,3,1,3,4,4,3,4,4,4,4,4
49,0,4224.461426,4231.12793,4233.179199,4229.589844,4231.641113,4230.102539,4228.563965,4223.436035,4210.102539,4210.615234,4216.769043,4204.461426,4223.436035,4225.487305,0,2043,2044,0,0,0,1193,72,2,3,4,4,3,3,1,3,4,4,3,4,4,4,4,4
50,0,4157.820313,4168.589844,4169.615234,4162.436035,4167.05127,4164.487305,4165,4161.410156,4142.94873,4141.922852,4146.025391,4132.692383,4159.871582,4155.256348,0,2043,2043,0,0,0,1193,80,2,3,4,4,3,3,1,3,4,4,3,4,4,4,4,4
51,0,4182.436035,4189.102539,4190.641113,4180.897461,4188.07666,4185,4189.102539,4181.922852,4166.025391,4161.410156,4168.07666,4162.436035,4182.94873,4180.897461,0,2043,2042,0,0,0,1193,88,2,3,4,4,3,3,1,3,4,4,3,4,4,4,4,4
52,0,4094.922852,4102.615234,4099.538574,4093.897461,4101.07666,4100.05127,4103.12793,4094.410156,4081.589844,4080.563965,4084.666504,4076.974121,4096.461426,4100.05127,0,2043,2042,0,0,0,1193,95,2,3,4,4,3,3,1,3,4,4,3,4,4,4,4,4
53,0,4156.230469,4170.589844,4167,4161.358887,4172.641113,4170.07666,4170.07666,4163.410156,4149.05127,4149.05127,4151.102539,4139.307617,4162.897461,4164.436035,0,2043,2042,0,0,0,1193,103,2,3,4,4,3,3,1,3,4,4,3,4,4,4,4,4
54,0,4275.794922,4286.563965,4287.589844,4277.846191,4289.641113,4286.05127,4284.512695,4284.512695,4271.692383,4268.615234,4273.230469,4263.487305,4280.410156,4281.94873,0,2041,2042,0,0,0,1193,111,2,3,4,4,3,3,1,3,4,4,3,4,4,4,4,4
55,0,4203.256348,4213,4215.05127,4208.384277,4215.563965,4211.461426,4208.384277,4211.461426,4200.692383,4198.641113,4201.205078,4185.307617,4207.871582,4209.922852,0,2042,2042,0,0,0,1193,119,2,3,4,4,3,3,1,3,4,4,3,4,4,4,4,4
56,0,4176.846191,4184.538574,4187.102539,4180.94873,4181.974121,4181.461426,4170.692383,4180.436035,4175.820313,4173.256348,4177.871582,4165.05127,4186.07666,4190.692383,0,2042,2043,0,0,0,1193,126,2,3,4,4,3,3,1,3,4,4,3,4,4,4,4,4
57,0,4202.846191,4213.102539,4212.07666,4206.94873,4209,4210.025391,4195.666504,4208.487305,4201.820313,4195.153809,4203.871582,4190.538574,4208.487305,4218.230469,0,2041,2044,0,0,0,1193,134,2,3,4,4,3,3,1,3,4,4,3,4,4,4,4,4
58,0,4264.307617,4278.666504,4273.025391,4269.94873,4277.641113,4275.07666,4270.461426,4272,4260.717773,4252.512695,4261.743652,4245.846191,4263.794922,4275.589844,0,2040,2045,0,0,0,1193,142,2,3,4,4,3,3,1,3,4,4,3,4,4,4,4,4
59,0,4212.846191,4220.538574,4219,4213.871582,4217.974121,4220.025391,4222.07666,4215.410156,4207.205078,4200.025391,4208.743652,4199.512695,4216.436035,4226.179199,0,2042,2045,0,0,0,1193,150,2,3,4,4,3,3,1,3,4,4,3,4,4,4,4,4
60,0,4191.666504,4200.897461,4200.897461,4198.846191,4199.871582,4202.436035,4205,4198.846191,4186.538574,4181.922852,4186.025391,4174.230469,4199.871582,4210.12793,0,2043,2047,0,0,0,1193,158,2,3,4,4,3,3,1,3,4,4,3,4,4,4,4,4
61,0,4125.769043,4135,4136.538574,4134.487305,4136.025391,4133.974121,4137.563965,4131.922852,4121.666504,4116.538574,4126.281738,4110.897461,4130.897461,4151.410156,0,2044,2048,0,0,0,1193,167,2,3,4,4,3,3,1,3,4,4,3,4,4,4,4,4
62,0,4164.179199,4174.94873,4177.512695,4174.436035,4175.461426,4174.436035,4177.512695,4171.358887,4161.102539,4154.436035,4167.256348,4154.94873,4172.897461,4193.410156,0,2044,2046,0,0,0,1193,174,2,3,4,4,3,3,1,3,4,4,3,4,4,4,4,4
63,0,4007.025391,4022.410156,4022.922852,4020.871582,4024.974121,4024.461426,4023.94873,4020.358887,4002.922852,3998.820313,4008.05127,3994.205078,4019.846191,4035.743652,0,2045,2044,0,0,0,1193,182,2,3,4,4,3,3,1,3,4,4,3,4,4,4,4,4
64,0,4137.307617,4147.563965,4149.102539,4142.94873,4150.12793,4147.05127,4145.512695,4145,4135.769043,4131.153809,4141.922852,4124.487305,4147.563965,4169.615234,268,2044,2042,0,0,0,1193,190,2,3,4,4,3,3,1,3,4,4,3,4,4,4,4,4
65,0,4167.256348,4181.102539,4180.589844,4173.410156,4181.102539,4177,4177.512695,4175.974121,4167.769043,4159.05127,4171.871582,4152.897461,4177.512695,4201.615234,315,2044,2040,0,0,0,1193,198,2,3,4,4,3,3,1,3,4,4,3,4,4,4,4,4
66,0,4182.179199,4194.487305,4195,4187.307617,4192.436035,4191.410156,4192.94873,4190.897461,4175,4168.846191,4180.12793,4171.410156,4192.94873,4220.641113,400,2044,2040,0,0,0,1193,205,2,3,4,4,3,3,1,3,4,4,3,4,4,4,4,4
67,0,4052.769043,4057.384277,4060.461426,4052.769043,4057.384277,4056.871582,4057.384277,4057.897461,4046.102539,4043.025391,4049.179199,4038.410156,4063.025391,4093.794922,436,2043,2039,0,0,0,1193,213,2,3,4,4,3,3,1,3,4,4,3,4,4,4,4,4
68,0,4140.743652,4147.410156,4151,4144.846191,4151,4147.922852,4149.974121,4150.487305,4143.820313,4138.179199,4145.871582,4123.820313,4151.512695,4185.358887,345,2042,2041,0,0,0,1193,220,2,3,4,4,3,3,1,3,4,4,3,4,4,4,4,4
69,0,4208.743652,4216.94873,4218.487305,4213.871582,4216.436035,4215.410156,4219.512695,4221.05127,4211.307617,4205.666504,4214.897461,4202.07666,4221.05127,4261.05127,391,2042,2042,0,0,0,1193,228,2,3,4,4,3,3,1,3,4,4,3,4,4,4,4,4
70,0,4188.153809,4200.461426,4196.358887,4195.846191,4197.384277,4197.384277,4200.974121,4198.922852,4182.512695,4180.974121,4185.589844,4175.333008,4199.436035,4239.94873,98,2041,2046,0,0,0,1193,236,2,3,4,4,3,3,1,3,4,4,3,4,4,4,4,4
71,0,4254.794922,4264.538574,4266.07666,4262.487305,4263.512695,4262.487305,4262.487305,4261.461426,4251.205078,4248.641113,4258.897461,4240.94873,4265.05127,4308.12793,337,2042,2047,0,0,0,1193,244,2,3,4,4,3,3,1,3,4,4,3,4,4,4,4,4
72,0,4141.358887,4146.487305,4151.615234,4143.410156,4145.461426,4146.487305,4147,4151.102539,4142.897461,4137.769043,4148.538574,4132.12793,4151.615234,4198.794922,884,2044,2048,0,0,0,1193,252,2,3,4,4,3,3,1,3,4,4,3,4,4,4,4,4
73,0,4176.589844,4189.410156,4187.871582,4182.743652,4186.333008,4188.384277,4192.487305,4189.922852,4173,4169.922852,4172.487305,4163.256348,4187.871582,4231.974121,853,2046,2048,0,0,0,1193,260,2,3,4,4,3,3,1,3,4,4,3,4,4,4,4,4
74,0,4044.615234,4058.974121,4058.974121,4055.384277,4051.794922,4056.410156,4054.871582,4051.281738,4038.974121,4034.358887,4040.512695,4035.897461,4057.436035,4103.07666,298,2044,2045,0,0,0,1193,268,2,3,4,4,3,3,1,3,4,4,3,4,4,4,4,4
75,0,4282.205078,4294,4297.589844,4294,4283.230469,4291.94873,4288.871582,4287.846191,4280.666504,4271.94873,4281.179199,4267.846191,4292.974121,4342.205078,576,2045,2044,0,0,0,1193,276,2,3,4,4,3,3,1,3,4,4,3,4,4,4,4,4
76,0,4140.281738,4149.512695,4152.07666,4145.410156,4137.717773,4146.94873,4148.487305,4144.384277,4134.12793,4129,4135.666504,4124.384277,4149,4199.256348,935,2044,2043,0,0,0,1193,284,2,3,4,4,3,3,1,3,4,4,3,4,4,4,4,4
77,0,4031.794922,4040.512695,4040.512695,4032.820313,4031.794922,4034.871582,4037.94873,4035.897461,4024.615234,4024.102539,4028.205078,4021.538574,4043.07666,4092.307617,474,2044,2042,0,0,0,1193,292,2,3,4,4,3,3,1,3,4,4,3,4,4,4,4,4
78,0,4051.743652,4063.025391,4063.538574,4057.384277,4058.922852,4057.384277,4058.922852,4058.410156,4048.666504,4046.615234,4051.743652,4032.769043,4061.487305,4110.717773,298,2044,2041,0,0,0,1193,300,2,3,4,4,3,3,1,3,4,4,3,4,4,4,4,4
79,0,4153.384277,4159.538574,4162.615234,4153.897461,4159.025391,4157.487305,4156.974121,4154.410156,4149.281738,4144.153809,4150.307617,4133.384277,4161.07666,4212.871582,576,2044,2040,0,0,0,1193,307,2,3,4,4,3,3,1,3,4,4,3,4,4,4,4,4
80,0,4105.179199,4118.512695,4115.94873,4110.820313,4119.538574,4117.487305,4117.487305,4110.307617,4099.538574,4098.512695,4098.512695,4087.743652,4119.025391,4169.794922,935,2045,2042,0,0,0,1193,315,2,3,4,4,3,3,1,3,4,4,3,4,4,4,4,4
81,0,4144.025391,4165.563965,4162.487305,4158.897461,4165.563965,4161.461426,4163,4158.384277,4144.025391,4145.05127,4146.07666,4134.281738,4161.974121,4212.743652,474,2047,2045,0,0,0,1193,323,2,3,4,4,3,3,1,3,4,4,3,4,4,4,4,4
82,0,4202.641113,4220.589844,4222.12793,4213.410156,4218.025391,4215.461426,4212.897461,4218.538574,4209.307617,4205.717773,4215.461426,4199.563965,4220.07666,4271.358887,298,2046,2045,0,0,0,1193,331,2,3,4,4,3,3,1,3,4,4,3,4,4,4,4,4
83,0,4111.102539,4130.589844,4128.538574,4121.871582,4129.563965,4128.538574,4112.12793,4125.974121,4119.820313,4114.179199,4122.897461,4100.846191,4129.05127,4175.717773,576,2048,2046,0,0,0,1193,339,2,3,4,4,3,3,1,3,4,4,3,4,4,4,4,4
84,0,4041.794922,4058.205078,4055.641113,4047.436035,4058.205078,4055.641113,4030.512695,4053.589844,4054.615234,4052.05127,4057.692383,4036.153809,4057.179199,4107.94873,935,2047,2047,0,0,0,1193,348,2,3,4,4,3,3,1,3,4,4,3,4,4,4,4,4
85,0,4111.846191,4128.256348,4126.205078,4113.384277,4124.666504,4123.641113,4105.179199,4128.256348,4133.897461,4132.358887,4136.974121,4108.256348,4126.717773,4182.102539,474,2046,2046,0,0,0,1193,356,2,3,4,4,3,3,1,3,4,4,3,4,4,4,4,4
86,0,4120.281738,4140.794922,4135.666504,4123.358887,4135.666504,4136.692383,4116.179199,4136.692383,4141.820313,4137.717773,4144.897461,4114.12793,4136.179199,4189.512695,298,2045,2045,0,0,0,1193,363,2,3,4,4,3,3,1,3,4,4,3,4,4,4,4,4
87,0,4148.846191,4164.743652,4159.102539,4151.410156,4161.153809,4161.666504,4135.512695,4158.589844,4160.12793,4156.538574,4162.179199,4142.179199,4160.641113,4211.410156,576,2043,2043,0,0,0,1193,371,2,3,4,4,3,3,1,3,4,4,3,4,4,4,4,4
88,0,4135.717773,4148.538574,4146.487305,4139.820313,4149.05127,4147.512695,4128.025391,4147,4140.846191,4136.743652,4140.333008,4121.871582,4143.922852,4194.692383,935,2045,2044,0,0,0,1193,379,2,3,4,4,3,3,1,3,4,4,3,4,4,4,4,4
89,0,4153.769043,4165.563965,4167.102539,4155.307617,4164.025391,4160.436035,4146.589844,4165.05127,4161.461426,4155.307617,4163.512695,4143,4163.512695,4215.820313,474,2043,2043,0,0,0,1193,386,2,3,4,4,3,3,1,3,4,4,3,4,4,4,4,4
90,0,4137.717773,4158.230469,4154.641113,4139.769043,4152.07666,4149.512695,4137.717773,4150.538574,4149.512695,4145.922852,4149.512695,4125.410156,4154.641113,4197.717773,298,2042,2045,0,0,0,1193,395,2,3,4,4,3,3,1,3,4,4,3,4,4,4,4,4
