title:01,recorded:11.04.19 14.59.01,sampling:128,subject:03,labels:COUNTER INTERPOLATED AF3 F7 F3 FC5 T7 P7 O1 O2 P8 T8 FC6 F4 F8 AF4 RAW_CQ GYROX GYROY MARKER MARKER_HARDWARE SYNC TIME_STAMP_s TIME_STAMP_ms CQ_AF3 CQ_F7 CQ_F3 CQ_FC5 CQ_T7 CQ_P7 CQ_O1 CQ_O2 CQ_P8 CQ_T8 CQ_FC6 CQ_F4 CQ_F8 CQ_AF4 CQ_CMS CQ_DRL,chan:40,units:emotiv,,,,,,,,,,,,,,,,,,,,,,,,,,,,,,,,,
71,0,4239.974121,4233.820313,4233.307617,4216.384277,4222.538574,4220.487305,4215.358887,4231.256348,4249.717773,4246.12793,4248.179199,4222.538574,4242.025391,4249.717773,358,2042,2043,0,0,0,1491,46,0,0,0,0,0,0,0,3,0,0,0,0,0,0,0,0
72,0,4190.358887,4189.846191,4182.153809,4169.846191,4177.538574,4173.94873,4171.897461,4182.666504,4197.025391,4194.974121,4192.922852,4168.307617,4189.333008,4199.07666,921,2041,2044,0,0,0,1491,54,0,0,0,0,0,0,0,3,4,0,0,0,0,0,0,0
73,0,4126,4107.538574,4110.102539,4101.384277,4108.05127,4103.94873,4100.358887,4116.769043,4128.563965,4129.07666,4129.589844,4106,4122.922852,4136.769043,883,2042,2043,0,0,0,1491,62,0,0,0,0,0,0,0,3,4,4,0,0,0,0,0,0
74,0,4263.615234,4232.333008,4245.153809,4234.897461,4236.94873,4239,4230.281738,4253.871582,4271.307617,4268.230469,4270.281738,4244.12793,4263.102539,4277.974121,359,2041,2044,0,0,0,1491,70,0,0,0,0,0,0,0,3,4,4,4,0,0,0,0,0
75,0,4234.94873,4205.717773,4221.615234,4212.897461,4213.410156,4214.94873,4211.358887,4223.666504,4234.94873,4230.846191,4228.281738,4205.717773,4233.922852,4245.205078,613,2040,2046,0,0,0,1491,78,0,0,0,0,0,0,0,3,4,4,4,4,0,0,0,0
76,0,4275.461426,4251.871582,4261.615234,4252.897461,4254.94873,4251.871582,4252.897461,4263.666504,4271.871582,4271.871582,4271.358887,4255.461426,4271.358887,4286.743652,1005,2041,2045,0,0,0,1491,86,0,0,0,0,0,0,0,3,4,4,4,4,4,0,0,0
77,0,4097.384277,4086.102539,4086.615234,4078.922852,4079.94873,4076.871582,4077.897461,4090.717773,4097.384277,4095.846191,4099.436035,4075.846191,4094.820313,4108.153809,481,2041,2044,0,0,0,1491,93,0,0,0,0,0,0,0,3,4,4,4,4,4,4,0,0
78,0,4117.333008,4106.563965,4110.666504,4108.615234,4104.512695,4101.94873,4101.436035,4113.230469,4121.94873,4117.333008,4119.897461,4095.794922,4120.410156,4132.205078,359,2041,2043,0,0,0,1491,101,0,0,0,0,0,0,0,3,4,4,4,4,4,4,0,0
79,0,4164.820313,4141.230469,4156.615234,4157.641113,4150.974121,4150.974121,4149.94873,4160.717773,4175.07666,4170.974121,4169.94873,4148.410156,4170.461426,4184.820313,613,2041,2041,0,0,0,1491,108,0,0,0,0,0,0,0,3,4,4,4,4,4,4,0,0
80,0,4263.256348,4234.538574,4258.12793,4252.487305,4250.436035,4251.974121,4250.94873,4259.666504,4270.94873,4268.384277,4268.897461,4241.717773,4265.307617,4281.205078,1005,2043,2039,0,0,0,1491,116,0,0,0,0,0,0,0,3,4,4,4,4,4,4,0,0
81,0,4234.384277,4208.230469,4228.743652,4218.487305,4219,4219,4216.436035,4228.230469,4242.07666,4240.025391,4246.179199,4220.538574,4237.974121,4255.410156,481,2041,2041,0,0,0,1491,124,0,0,0,0,0,0,0,3,4,4,4,4,4,4,0,0
82,0,4127.743652,4106.205078,4122.102539,4118.512695,4116.974121,4115.94873,4115.94873,4123.641113,4132.358887,4131.333008,4131.846191,4113.384277,4133.897461,4150.820313,359,2041,2040,0,0,0,1491,132,0,0,0,0,0,0,0,3,4,4,4,4,4,4,0,0
83,0,4185.641113,4153.333008,4181.538574,4179.487305,4176.922852,4175.384277,4178.974121,4180,4183.07666,4185.12793,4182.563965,4168.717773,4190.769043,4210.256348,613,2040,2041,0,0,0,1491,141,0,0,0,0,0,0,0,3,4,4,4,4,4,4,0,0
84,0,4284.692383,4246.230469,4279.563965,4271.871582,4271.358887,4269.820313,4274.94873,4273.410156,4278.025391,4277.512695,4281.102539,4264.179199,4291.358887,4309.307617,1005,2039,2042,0,0,0,1491,149,0,0,0,0,0,0,0,3,4,4,4,4,4,4,0,0
85,0,4162.615234,4137.487305,4159.538574,4151.333008,4153.384277,4150.820313,4158.512695,4153.897461,4148.769043,4145.692383,4149.794922,4130.307617,4166.717773,4183.641113,481,2041,2042,0,0,0,1491,156,0,0,0,0,0,0,0,3,4,4,4,4,4,4,0,0
86,0,4212.179199,4190.12793,4213.205078,4202.436035,4203.461426,4201.410156,4204.487305,4208.589844,4206.538574,4206.025391,4208.07666,4192.179199,4215.256348,4238.846191,359,2043,2042,0,0,0,1491,165,0,0,0,0,0,0,0,3,4,4,4,4,4,4,0,0
87,0,4190.641113,4149.102539,4192.179199,4181.922852,4181.410156,4180.897461,4179.871582,4184.487305,4188.589844,4190.12793,4188.07666,4172.692383,4196.281738,4214.743652,613,2043,2042,0,0,0,1491,173,0,0,0,0,0,0,0,3,4,4,4,4,4,4,0,0
88,0,4101.179199,4042.717773,4096.05127,4088.871582,4091.436035,4086.820313,4089.897461,4088.871582,4088.871582,4089.897461,4088.871582,4074.512695,4105.281738,4121.179199,1005,2042,2040,0,0,0,1491,180,0,0,0,0,0,0,0,3,4,4,4,4,4,4,0,0
89,0,4162.205078,4121.179199,4156.05127,4150.410156,4147.846191,4144.769043,4150.922852,4154.512695,4157.07666,4156.563965,4158.102539,4138.615234,4169.384277,4190.922852,481,2043,2040,0,0,0,1491,187,0,0,0,0,0,0,0,3,4,4,4,4,4,4,0,0
90,0,4206.12793,4185.102539,4205.615234,4200.487305,4190.230469,4194.333008,4198.436035,4202.538574,4204.589844,4203.563965,4206.12793,4179.461426,4212.794922,4235.871582,359,2043,2038,0,0,0,1491,195,0,0,0,0,0,0,0,3,4,4,4,4,4,4,0,0
91,0,4156.769043,4131.641113,4151.641113,4145.487305,4138.820313,4142.922852,4145.487305,4150.615234,4155.230469,4154.205078,4161.384277,4138.820313,4161.384277,4184.974121,613,2042,2037,0,0,0,1491,202,0,0,0,0,0,0,0,3,4,4,4,4,4,4,0,0
92,0,4168.717773,4153.333008,4159.487305,4157.94873,4155.384277,4154.358887,4159.487305,4166.666504,4170.256348,4167.692383,4174.358887,4149.743652,4175.384277,4195.897461,1005,2039,2040,0,0,0,1491,210,0,0,0,0,0,0,0,3,4,4,4,4,4,4,0,0
93,0,4125.12793,4122.05127,4120.512695,4119.487305,4114.871582,4111.794922,4117.436035,4124.615234,4124.102539,4122.05127,4126.153809,4100.512695,4129.743652,4152.307617,481,2037,2040,0,0,0,1491,218,0,0,0,0,0,0,0,3,4,4,4,4,4,4,0,0
94,0,4130.666504,4111.692383,4127.589844,4122.974121,4118.871582,4115.794922,4121.436035,4129.641113,4129.12793,4129.12793,4132.717773,4113.743652,4136.820313,4162.461426,359,2035,2041,0,0,0,1491,227,0,0,0,0,0,0,0,3,4,4,4,4,4,4,0,0
95,0,4158.153809,4126.871582,4154.563965,4149.436035,4147.897461,4146.358887,4149.436035,4157.12793,4155.07666,4154.563965,4159.692383,4137.641113,4167.384277,4188.922852,613,2035,2042,0,0,0,1491,235,0,0,0,0,0,0,0,3,4,4,4,4,4,4,0,0
96,0,4224.743652,4205.256348,4220.641113,4215.512695,4213.461426,4208.333008,4210.384277,4220.12793,4221.153809,4222.179199,4228.846191,4204.230469,4229.871582,4255,1005,2033,2041,0,0,0,1491,244,0,0,0,0,0,0,0,3,4,4,4,4,4,4,0,0
97,0,4212.07666,4200.794922,4211.05127,4208.487305,4204.897461,4195.153809,4204.384277,4207.461426,4202.333008,4203.871582,4204.897461,4187.461426,4213.102539,4236.692383,481,2033,2043,0,0,0,1491,252,0,0,0,0,0,0,0,3,4,4,4,4,4,4,0,0
98,0,4238.487305,4214.384277,4243.615234,4236.94873,4230.794922,4226.692383,4233.871582,4233.871582,4222.589844,4222.07666,4224.12793,4210.794922,4242.589844,4258.487305,359,2032,2042,0,0,0,1491,260,0,0,0,0,0,0,0,3,4,4,4,4,4,4,0,0
99,0,4112.717773,4082.974121,4114.769043,4102.974121,4096.307617,4097.333008,4096.820313,4106.05127,4105.538574,4104.512695,4112.717773,4092.205078,4122.974121,4139.897461,613,2033,2042,0,0,0,1491,269,0,0,0,0,0,0,0,3,4,4,4,4,4,4,0,0
100,0,4215.102539,4202.794922,4217.153809,4208.94873,4207.922852,4203.307617,4206.384277,4213.563965,4211,4210.487305,4214.07666,4187.410156,4223.820313,4239.717773,1005,2034,2040,0,0,0,1491,276,0,0,0,0,0,0,0,3,4,4,4,4,4,4,0,0
101,0,4277.05127,4261.153809,4283.205078,4278.07666,4272.94873,4267.820313,4270.897461,4279.615234,4276.025391,4275.512695,4278.589844,4256.538574,4287.307617,4304.230469,481,2034,2038,0,0,0,1491,283,0,0,0,0,0,0,0,3,4,4,4,4,4,4,0,0
102,0,4258.179199,4235.102539,4258.692383,4265.358887,4246.897461,4246.384277,4242.281738,4259.205078,4263.820313,4261.256348,4267.922852,4243.820313,4273.05127,4291,359,2034,2039,0,0,0,1491,291,0,0,0,0,0,0,0,3,4,4,4,4,4,4,0,0
103,0,4090.205078,4089.179199,4082,4098.922852,4077.897461,4073.794922,4074.307617,4089.692383,4092.769043,4091.230469,4096.358887,4067.641113,4099.436035,4117.384277,613,2037,2039,0,0,0,1491,298,0,0,0,0,0,0,0,3,4,4,4,4,4,4,0,0
104,0,4280.179199,4290.436035,4273,4285.307617,4266.333008,4259.666504,4268.897461,4280.692383,4283.256348,4283.256348,4290.436035,4262.743652,4287.871582,4307.358887,1005,2040,2039,0,0,0,1491,306,0,0,0,0,0,0,0,3,4,4,4,4,4,4,0,0
105,0,4116.461426,4130.820313,4118,4132.358887,4107.230469,4104.153809,4112.871582,4121.589844,4119.025391,4117.487305,4123.641113,4099.538574,4129.794922,4144.153809,481,2039,2040,0,0,0,1491,313,0,0,0,0,0,0,0,3,4,4,4,4,4,4,0,0
106,0,4273.974121,4298.07666,4274.487305,4293.461426,4268.846191,4263.205078,4267.307617,4278.07666,4273.974121,4270.897461,4275.512695,4257.563965,4287.307617,4299.102539,359,2039,2038,0,0,0,1491,320,0,0,0,0,0,0,0,3,4,4,4,4,4,4,0,0
107,0,4240.538574,4247.205078,4234.897461,4251.307617,4235.410156,4228.230469,4233.358887,4241.05127,4236.436035,4235.410156,4237.974121,4219.512695,4249.256348,4261.563965,613,2041,2037,0,0,0,1491,329,0,0,0,0,0,0,0,3,4,4,4,4,4,4,0,0
108,0,4144.974121,4115.743652,4142.410156,4156.769043,4138.307617,4135.743652,4139.846191,4141.897461,4128.05127,4130.102539,4131.12793,4114.205078,4150.102539,4161.384277,1005,2040,2037,0,0,0,1491,337,0,0,0,0,0,0,0,3,4,4,4,4,4,4,0,0
109,0,4272.538574,4237.153809,4272.538574,4289.461426,4260.230469,4256.12793,4259.205078,4266.897461,4254.589844,4256.12793,4257.666504,4247.922852,4278.692383,4291.512695,481,2042,2039,0,0,0,1491,346,0,0,0,0,0,0,0,3,4,4,4,4,4,4,0,0
110,0,4132.512695,4118.666504,4132.512695,4149.94873,4125.333008,4118.666504,4121.743652,4130.461426,4122.769043,4117.641113,4121.230469,4105.333008,4141.230469,4152,359,2044,2040,0,0,0,1491,354,0,0,0,0,0,0,0,3,4,4,4,4,4,4,0,0
111,0,4172.563965,4167.436035,4171.538574,4186.922852,4168.461426,4164.358887,4166.410156,4175.12793,4170,4163.846191,4173.07666,4152.05127,4180.769043,4199.230469,613,2044,2039,0,0,0,1491,362,0,0,0,0,0,0,0,3,4,4,4,4,4,4,0,0
112,0,4113.538574,4108.410156,4112.512695,4131.487305,4104.820313,4104.820313,4107.897461,4117.12793,4114.05127,4113.025391,4118.666504,4100.205078,4123.794922,4143.794922,1005,2046,2038,0,0,0,1491,371,0,0,0,0,0,0,0,3,4,4,4,4,4,4,0,0
113,0,4090.461426,4074.563965,4090.974121,4111.487305,4082.769043,4082.769043,4086.358887,4089.94873,4082.769043,4082.769043,4080.717773,4066.871582,4099.692383,4108.922852,481,2045,2038,0,0,0,1491,379,0,0,0,0,0,0,0,3,4,4,4,4,4,4,0,0
114,0,4205.05127,4170.179199,4204.538574,4218.384277,4196.333008,4194.794922,4195.820313,4200.94873,4193.256348,4193.256348,4194.794922,4186.07666,4214.281738,4223,359,2046,2038,0,0,0,1491,386,0,0,0,0,0,0,0,3,4,4,4,4,4,4,0,0
115,0,4233.410156,4204.692383,4233.922852,4248.794922,4225.205078,4223.666504,4230.333008,4232.384277,4217,4219.05127,4224.692383,4212.897461,4244.692383,4252.384277,613,2047,2039,0,0,0,1491,394,0,0,0,0,0,0,0,3,4,4,4,4,4,4,0,0
116,0,4087.94873,4075.12793,4087.94873,4106.922852,4079.743652,4079.230469,4088.461426,4085.384277,4072.563965,4074.615234,4081.281738,4066.410156,4099.230469,4106.410156,1005,2048,2041,0,0,0,1491,401,0,0,0,0,0,0,0,3,4,4,4,4,4,4,0,0
117,0,4234.589844,4233.563965,4232.538574,4247.410156,4227.410156,4227.922852,4230.487305,4232.025391,4231.512695,4231,4236.12793,4218.179199,4244.846191,4254.07666,481,2048,2042,0,0,0,1491,409,0,0,0,0,0,0,0,3,4,4,4,4,4,4,0,0
118,0,4108.922852,4108.922852,4113.025391,4121.743652,4109.94873,4105.846191,4110.461426,4109.94873,4101.743652,4101.743652,4104.820313,4083.794922,4116.102539,4124.307617,359,2047,2042,0,0,0,1491,416,0,0,0,0,0,0,0,3,4,4,4,4,4,4,0,0
119,0,4171.538574,4150.512695,4173.589844,4187.94873,4165.384277,4160.769043,4170,4168.461426,4157.179199,4158.205078,4164.358887,4146.922852,4175.641113,4187.94873,613,2048,2044,0,0,0,1491,423,0,0,0,0,0,0,0,3,4,4,4,4,4,4,0,0
120,0,4191.153809,4176.281738,4187.05127,4216.794922,4183.974121,4181.922852,4183.461426,4185.512695,4180.384277,4178.333008,4186.025391,4163.974121,4195.769043,4209.615234,1005,2049,2045,0,0,0,1491,431,0,0,0,0,0,0,0,3,4,4,4,4,4,4,0,0
121,0,4263.666504,4257,4260.07666,4290.846191,4253.922852,4254.94873,4253.922852,4260.07666,4259.563965,4257.512695,4264.179199,4238.025391,4271.358887,4284.179199,481,2050,2042,0,0,0,1491,439,0,0,0,0,0,0,0,3,4,4,4,4,4,4,0,0
122,0,4228.641113,4187.615234,4226.589844,4250.179199,4206.07666,4213.256348,4220.436035,4228.12793,4228.641113,4227.615234,4232.743652,4210.692383,4242.487305,4252.743652,359,2049,2043,0,0,0,1491,447,0,0,0,0,0,0,0,3,4,4,4,4,4,4,0,0
123,0,4154.05127,4093.025391,4150.974121,4180.205078,4133.025391,4137.641113,4148.922852,4150.974121,4140.717773,4139.692383,4141.743652,4123.794922,4163.281738,4170.974121,613,2048,2043,0,0,0,1491,456,0,0,0,0,0,0,0,3,4,4,4,4,4,4,0,0
124,0,4141.12793,4091.897461,4135.487305,4164.717773,4122.153809,4122.153809,4129.333008,4136.512695,4122.666504,4122.153809,4125.743652,4113.436035,4145.230469,4154.461426,1005,2047,2043,0,0,0,1491,464,0,0,0,0,0,0,0,3,4,4,4,4,4,4,0,0
125,0,4113.025391,4069.94873,4109.436035,4123.794922,4097.641113,4096.615234,4105.333008,4111.487305,4096.615234,4096.102539,4101.743652,4087.897461,4121.230469,4124.820313,481,2046,2042,0,0,0,1491,472,0,0,0,0,0,0,0,3,4,4,4,4,4,4,0,0
126,0,4227,4182.384277,4228.538574,4231.102539,4217.256348,4215.717773,4224.436035,4223.410156,4207,4205.974121,4212.641113,4200.333008,4236.743652,4241.358887,359,2046,2042,0,0,0,1491,479,0,0,0,0,0,0,0,3,4,4,4,4,4,4,0,0
127,0,4140.717773,4105.846191,4139.692383,4144.307617,4129.94873,4126.871582,4130.974121,4134.563965,4126.871582,4124.820313,4129.94873,4117.641113,4147.384277,4158.153809,613,2045,2044,0,0,0,1491,487,0,0,0,0,0,0,0,3,4,4,4,4,4,4,0,0
128,0,4276.692383,4245.410156,4274.641113,4278.743652,4267.974121,4262.333008,4269.512695,4272.07666,4265.410156,4263.871582,4266.94873,4245.410156,4284.897461,4291.05127,1005,2045,2044,0,0,0,1491,496,0,0,0,0,0,0,0,3,4,4,4,4,4,4,0,0
0,0,4249.717773,4196.384277,4246.12793,4244.07666,4237.922852,4232.794922,4242.538574,4245.102539,4241,4238.94873,4246.12793,4223.05127,4260.487305,4272.281738,259,2044,2045,0,0,0,1491,504,2,0,0,0,0,0,0,3,4,4,4,4,4,4,0,0
1,0,4217.666504,4152.538574,4214.07666,4215.102539,4207.410156,4204.846191,4211,4213.563965,4212.538574,4208.436035,4213.05127,4193.05127,4227.410156,4243.820313,312,2043,2045,0,0,0,1491,512,2,3,0,0,0,0,0,3,4,4,4,4,4,4,0,0
2,0,4267.666504,4210.230469,4265.102539,4270.230469,4258.436035,4254.846191,4262.025391,4259.974121,4253.307617,4250.230469,4250.230469,4236.384277,4273.307617,4283.05127,403,2042,2047,0,0,0,1491,519,2,3,4,0,0,0,0,3,4,4,4,4,4,4,4,0
3,0,4128.307617,4082.666504,4124.205078,4127.794922,4111.384277,4111.897461,4117.538574,4116.512695,4110.871582,4109.846191,4113.94873,4101.641113,4133.94873,4143.179199,461,2041,2047,0,0,0,1491,527,2,3,4,4,0,0,0,3,4,4,4,4,4,4,4,4
4,0,4203.717773,4159.102539,4200.12793,4204.743652,4186.794922,4193.461426,4195.512695,4196.538574,4189.358887,4185.769043,4192.94873,4172.436035,4209.358887,4223.205078,353,2040,2046,0,0,0,1491,534,2,3,4,4,3,0,0,3,4,4,4,4,4,4,4,4
5,0,4169.743652,4118.461426,4163.589844,4165.12793,4156.410156,4158.974121,4159.487305,4162.563965,4157.94873,4153.333008,4161.025391,4144.102539,4173.333008,4191.281738,401,2039,2046,0,0,0,1491,542,2,3,4,4,3,4,0,3,4,4,4,4,4,4,4,4
6,0,4228.179199,4186.641113,4222.025391,4219.974121,4218.94873,4219.461426,4222.025391,4217.922852,4210.230469,4209.205078,4212.281738,4203.05127,4231.256348,4245.615234,93,2039,2047,0,0,0,1491,550,2,3,4,4,3,4,1,3,4,4,4,4,4,4,4,4
7,0,4116.974121,4095.436035,4116.461426,4116.974121,4110.820313,4113.384277,4120.563965,4106.717773,4086.205078,4088.256348,4088.256348,4082.615234,4120.05127,4126.205078,347,2039,2045,0,0,0,1491,559,2,3,4,4,3,4,1,3,4,4,4,4,4,4,4,4
8,0,4092.563965,4075.641113,4092.05127,4089.487305,4081.794922,4084.358887,4088.974121,4083.333008,4063.846191,4066.410156,4070,4065.384277,4096.666504,4102.307617,920,2040,2044,0,0,0,1491,567,2,3,4,4,3,4,1,3,4,4,4,4,4,4,4,4
9,0,4116.615234,4105.846191,4115.589844,4110.974121,4107.897461,4107.897461,4108.410156,4107.897461,4091.487305,4091.487305,4095.07666,4086.358887,4119.692383,4124.307617,882,2041,2042,0,0,0,1491,575,2,3,4,4,3,4,1,3,4,4,4,4,4,4,4,4
10,0,4250.179199,4250.179199,4249.153809,4242.487305,4243,4243,4240.94873,4238.897461,4227.102539,4225.05127,4230.692383,4220.94873,4251.717773,4259.922852,360,2039,2042,0,0,0,1491,582,2,3,4,4,3,4,1,3,4,4,4,4,4,4,4,4
11,0,4239.153809,4236.07666,4235.563965,4229.922852,4233.512695,4231.461426,4231.461426,4230.436035,4224.281738,4220.692383,4227.358887,4214.538574,4246.333008,4253.512695,601,2041,2041,0,0,0,1491,590,2,3,4,4,3,4,1,3,4,4,4,4,4,4,4,4
12,0,4192.07666,4174.641113,4188.487305,4187.461426,4187.974121,4184.897461,4186.436035,4187.974121,4179.769043,4177.205078,4179.769043,4163.871582,4202.333008,4206.436035,990,2040,2041,0,0,0,1491,598,2,3,4,4,3,4,1,3,4,4,4,4,4,4,4,4
13,0,4264.12793,4235.922852,4262.589844,4257.461426,4255.922852,4252.846191,4254.897461,4260.025391,4254.384277,4253.871582,4256.436035,4242.589844,4274.897461,4282.07666,478,2041,2043,0,0,0,1491,606,2,3,4,4,3,4,1,3,4,4,4,4,4,4,4,4
14,0,4258.487305,4239.512695,4257.974121,4253.871582,4254.897461,4250.281738,4253.871582,4253.871582,4241.563965,4239.512695,4244.12793,4234.384277,4270.794922,4270.794922,360,2043,2043,0,0,0,1491,614,2,3,4,4,3,4,1,3,4,4,4,4,4,4,4,4
15,0,4137.025391,4107.281738,4136.512695,4139.589844,4131.897461,4129.846191,4132.922852,4130.871582,4114.974121,4112.410156,4121.12793,4113.436035,4146.769043,4148.307617,601,2043,2045,0,0,0,1491,622,2,3,4,4,3,4,1,3,4,4,4,4,4,4,4,4
16,0,4097.641113,4036.102539,4096.615234,4097.12793,4086.871582,4086.358887,4090.461426,4093.025391,4085.846191,4082.769043,4090.461426,4077.641113,4103.281738,4117.641113,0,2043,2044,0,0,0,1491,630,2,3,4,4,3,4,1,3,4,4,4,4,4,4,4,4
17,0,4263.102539,4205.666504,4259.512695,4256.94873,4256.94873,4254.897461,4260.538574,4260.538574,4253.358887,4251.820313,4254.897461,4237.461426,4267.717773,4282.07666,0,2044,2044,0,0,0,1491,638,2,3,4,4,3,4,1,3,4,4,4,4,4,4,4,4
18,0,4239.153809,4206.846191,4235.05127,4237.615234,4230.436035,4233.512695,4232.487305,4237.102539,4234.538574,4233,4239.153809,4222.743652,4249.922852,4260.179199,0,2044,2043,0,0,0,1491,646,2,3,4,4,3,4,1,3,4,4,4,4,4,4,4,4
19,0,4086.512695,4071.12793,4092.153809,4093.692383,4079.333008,4088.563965,4081.897461,4091.12793,4088.05127,4083.94873,4089.589844,4070.102539,4101.384277,4111.641113,0,2045,2042,0,0,0,1491,653,2,3,4,4,3,4,1,3,4,4,4,4,4,4,4,4
20,0,4236.538574,4220.641113,4246.794922,4235.512695,4231.410156,4236.538574,4232.94873,4239.615234,4235,4231.410156,4235,4215,4246.281738,4262.692383,0,2045,2040,0,0,0,1491,660,2,3,4,4,3,4,1,3,4,4,4,4,4,4,4,4
21,0,4241.205078,4217.102539,4242.743652,4231.461426,4230.436035,4232.487305,4233,4232.487305,4232.487305,4229.410156,4235.563965,4217.102539,4246.846191,4261.205078,0,2044,2039,0,0,0,1491,668,2,3,4,4,3,4,1,3,4,4,4,4,4,4,4,4
22,0,4218.692383,4201.769043,4217.666504,4213.563965,4207.922852,4217.153809,4211,4206.384277,4202.281738,4196.641113,4203.820313,4186.897461,4221.256348,4228.94873,0,2044,2040,0,0,0,1491,675,2,3,4,4,3,4,1,3,4,4,4,4,4,4,4,4
23,0,4203.769043,4182.743652,4204.281738,4197.102539,4192.487305,4201.205078,4193.512695,4198.641113,4195.563965,4191.974121,4198.12793,4185.820313,4209.410156,4222.230469,0,2043,2041,0,0,0,1491,684,2,3,4,4,3,4,1,3,4,4,4,4,4,4,4,4
24,0,4114.102539,4080.256348,4117.179199,4111.025391,4102.820313,4110,4114.102539,4114.615234,4113.589844,4110,4115.641113,4099.230469,4125.384277,4139.743652,0,2044,2039,0,0,0,1491,692,2,3,4,4,3,4,1,3,4,4,4,4,4,4,4,4
25,0,4225.512695,4232.179199,4229.615234,4230.12793,4212.179199,4226.538574,4229.615234,4221.922852,4221.922852,4216.794922,4223.461426,4203.461426,4235.256348,4247.563965,0,2044,2041,0,0,0,1491,701,2,3,4,4,3,4,1,3,4,4,4,4,4,4,4,4
26,0,4264.589844,4308.692383,4267.153809,4267.153809,4252.794922,4269.205078,4262.025391,4263.05127,4265.615234,4264.07666,4266.12793,4247.666504,4276.384277,4285.102539,0,2045,2043,0,0,0,1491,709,2,3,4,4,3,4,1,3,4,4,4,4,4,4,4,4
27,0,4116.871582,4116.871582,4123.538574,4124.05127,4115.846191,4122.512695,4123.025391,4119.94873,4111.743652,4113.281738,4110.717773,4099.94873,4132.769043,4133.281738,0,2045,2044,0,0,0,1491,717,2,3,4,4,3,4,1,3,4,4,4,4,4,4,4,4
28,0,4126.307617,4076.05127,4133.487305,4134,4126.307617,4126.307617,4134.512695,4124.256348,4111.94873,4108.358887,4111.94873,4115.025391,4140.666504,4144.256348,0,2045,2045,0,0,0,1491,725,2,3,4,4,3,4,1,3,4,4,4,4,4,4,4,4
29,0,4252.281738,4221.512695,4257.922852,4257.922852,4251.256348,4253.820313,4255.358887,4251.256348,4238.436035,4230.743652,4233.820313,4234.333008,4267.153809,4270.230469,0,2045,2042,0,0,0,1491,732,2,3,4,4,3,4,1,3,4,4,4,4,4,4,4,4
30,0,4118.717773,4104.358887,4127.94873,4124.358887,4120.769043,4122.307617,4123.333008,4123.333008,4103.846191,4100.769043,4100.769043,4098.717773,4133.589844,4134.615234,0,2045,2040,0,0,0,1491,739,2,3,4,4,3,4,1,3,4,4,4,4,4,4,4,4
31,0,4175.769043,4156.281738,4183.461426,4176.281738,4175.769043,4175.769043,4179.871582,4178.846191,4157.820313,4157.307617,4161.410156,4163.974121,4187.563965,4191.153809,0,2046,2038,0,0,0,1491,747,2,3,4,4,3,4,1,3,4,4,4,4,4,4,4,4
32,0,4101.281738,4110.512695,4106.410156,4105.384277,4104.358887,4104.871582,4103.846191,4099.743652,4077.179199,4075.12793,4076.153809,4073.589844,4111.025391,4111.538574,0,2045,2038,0,0,0,1491,755,2,3,4,4,3,4,1,3,4,4,4,4,4,4,4,4
33,0,4085.487305,4095.743652,4087.538574,4088.05127,4084.974121,4080.358887,4080.871582,4079.333008,4064.461426,4062.922852,4062.922852,4055.230469,4093.692383,4098.820313,0,2045,2038,0,0,0,1491,763,2,3,4,4,3,4,1,3,4,4,4,4,4,4,4,4
34,0,4137.94873,4116.922852,4139.487305,4136.410156,4136.410156,4125.641113,4135.897461,4133.846191,4120,4118.461426,4121.025391,4115.384277,4145.12793,4152.820313,0,2044,2039,0,0,0,1491,772,2,3,4,4,3,4,1,3,4,4,4,4,4,4,4,4
35,0,4106.769043,4083.692383,4111.897461,4106.256348,4110.358887,4105.230469,4111.384277,4104.717773,4081.12793,4080.615234,4082.153809,4083.179199,4111.897461,4117.538574,0,2044,2042,0,0,0,1491,779,2,3,4,4,3,4,1,3,4,4,4,4,4,4,4,4
36,0,4246.846191,4246.333008,4253,4248.384277,4248.384277,4251.461426,4247.871582,4247.358887,4229.922852,4229.410156,4229.410156,4230.94873,4254.025391,4263.256348,0,2044,2042,0,0,0,1491,786,2,3,4,4,3,4,1,3,4,4,4,4,4,4,4,4
37,0,4192.846191,4206.179199,4200.538574,4195.922852,4196.436035,4193.871582,4195.922852,4197.461426,4185.666504,4181.563965,4184.12793,4175.410156,4203.102539,4209.769043,0,2043,2042,0,0,0,1491,794,2,3,4,4,3,4,1,3,4,4,4,4,4,4,4,4
38,0,4103.436035,4101.897461,4108.563965,4092.666504,4104.461426,4098.820313,4102.410156,4102.922852,4092.153809,4089.07666,4094.205078,4086.512695,4113.179199,4116.769043,0,2043,2044,0,0,0,1491,802,2,3,4,4,3,4,1,3,4,4,4,4,4,4,4,4
39,0,4158.871582,4156.820313,4164,4150.153809,4159.897461,4160.922852,4159.384277,4159.384277,4148.102539,4148.615234,4147.589844,4140.922852,4170.666504,4172.205078,0,2043,2043,0,0,0,1491,810,2,3,4,4,3,4,1,3,4,4,4,4,4,4,4,4
40,0,4082.307617,4091.538574,4091.025391,4088.461426,4086.410156,4086.922852,4087.436035,4084.871582,4071.025391,4071.025391,4070.512695,4060.256348,4094.615234,4095.12793,0,2042,2045,0,0,0,1491,818,2,3,4,4,3,4,1,3,4,4,4,4,4,4,4,4
41,0,4255.461426,4256.487305,4260.589844,4256.487305,4252.897461,4251.358887,4253.410156,4253.410156,4243.666504,4237,4246.230469,4239.05127,4265.717773,4270.846191,0,2042,2045,0,0,0,1491,827,2,3,4,4,3,4,1,3,4,4,4,4,4,4,4,4
42,0,4130.307617,4126.717773,4132.871582,4130.307617,4135.436035,4132.358887,4131.846191,4130.820313,4116.461426,4108.769043,4113.384277,4107.743652,4139.025391,4142.102539,0,2042,2045,0,0,0,1491,835,2,3,4,4,3,4,1,3,4,4,4,4,4,4,4,4
43,0,4249.717773,4251.769043,4255.871582,4255.871582,4256.897461,4257.410156,4256.384277,4249.205078,4230.230469,4230.230469,4227.666504,4228.692383,4257.922852,4258.94873,0,2043,2044,0,0,0,1491,843,2,3,4,4,3,4,1,3,4,4,4,4,4,4,4,4
44,0,4256.230469,4274.692383,4264.94873,4265.461426,4250.589844,4262.384277,4262.384277,4248.538574,4225.974121,4230.589844,4228.025391,4234.179199,4264.94873,4260.846191,0,2043,2043,0,0,0,1491,850,2,3,4,4,3,4,1,3,4,4,4,4,4,4,4,4
45,0,4087.230469,4118.512695,4097.487305,4095.94873,4081.589844,4092.871582,4093.384277,4078.512695,4054.922852,4053.384277,4053.384277,4058,4092.871582,4086.205078,0,2042,2044,0,0,0,1491,858,2,3,4,4,3,4,1,3,4,4,4,4,4,4,4,4
46,0,4252.94873,4278.589844,4259.102539,4254.487305,4250.897461,4251.410156,4249.358887,4249.871582,4238.07666,4233.461426,4237.563965,4232.94873,4261.666504,4259.615234,0,2041,2041,0,0,0,1491,865,2,3,4,4,3,4,1,3,4,4,4,4,4,4,4,4
47,0,4141.487305,4167.12793,4142.512695,4139.94873,4138.922852,4138.410156,4136.871582,4138.410156,4127.641113,4127.641113,4128.666504,4115.846191,4152.256348,4148.666504,0,2042,2042,0,0,0,1491,873,2,3,4,4,3,4,1,3,4,4,4,4,4,4,4,4
48,0,4256.025391,4283.717773,4254.487305,4252.94873,4246.794922,4249.358887,4249.358887,4247.820313,4231.922852,4232.436035,4232.94873,4226.281738,4260.12793,4257.563965,0,2041,2043,0,0,0,1491,881,2,3,4,4,3,4,1,3,4,4,4,4,4,4,4,4
49,0,4276.487305,4305.717773,4275.974121,4274.436035,4270.333008,4268.281738,4269.307617,4271.871582,4257,4254.94873,4255.974121,4252.384277,4281.102539,4279.05127,0,2040,2041,0,0,0,1491,889,2,3,4,4,3,4,1,3,4,4,4,4,4,4,4,4
50,0,4209.358887,4243.717773,4211.410156,4211.410156,4212.94873,4209.358887,4207.820313,4208.846191,4190.384277,4190.897461,4188.846191,4182.179199,4215,4211.922852,0,2040,2043,0,0,0,1491,898,2,3,4,4,3,4,1,3,4,4,4,4,4,4,4,4
51,0,4157.538574,4176.512695,4154.974121,4152.922852,4152.922852,4148.820313,4148.820313,4151.897461,4139.589844,4141.641113,4140.615234,4137.025391,4162.153809,4163.179199,0,2041,2044,0,0,0,1491,905,2,3,4,4,3,4,1,3,4,4,4,4,4,4,4,4
52,0,4082.512695,4079.94873,4082,4076.358887,4071.230469,4068.666504,4073.281738,4075.333008,4062.512695,4059.94873,4061.487305,4056.358887,4087.12793,4083.025391,0,2041,2044,0,0,0,1491,912,2,3,4,4,3,4,1,3,4,4,4,4,4,4,4,4
53,0,4190.94873,4180.692383,4194.025391,4193,4180.692383,4182.743652,4185.307617,4184.794922,4163.769043,4162.230469,4164.281738,4158.641113,4193,4187.358887,0,2041,2044,0,0,0,1491,921,2,3,4,4,3,4,1,3,4,4,4,4,4,4,4,4
54,0,4276.07666,4256.07666,4271.461426,4277.102539,4264.281738,4266.846191,4267.871582,4264.794922,4244.281738,4245.307617,4245.820313,4244.794922,4275.05127,4271.974121,0,2042,2044,0,0,0,1491,929,2,3,4,4,3,4,1,3,4,4,4,4,4,4,4,4
55,0,4139.025391,4109.281738,4133.897461,4139.025391,4131.333008,4130.820313,4133.897461,4124.666504,4097.487305,4096.974121,4096.461426,4099.538574,4137.487305,4127.230469,0,2043,2041,0,0,0,1491,936,2,3,4,4,3,4,1,3,4,4,4,4,4,4,4,4
56,0,4240.538574,4217.974121,4237.974121,4237.974121,4232.333008,4228.230469,4232.333008,4229.769043,4204.12793,4205.666504,4207.205078,4207.717773,4241.05127,4228.743652,0,2041,2040,0,0,0,1491,944,2,3,4,4,3,4,1,3,4,4,4,4,4,4,4,4
57,0,4208.94873,4204.333008,4206.384277,4207.922852,4200.230469,4198.692383,4202.794922,4203.820313,4183.307617,4184.846191,4183.307617,4176.12793,4208.436035,4199.205078,0,2042,2039,0,0,0,1491,952,2,3,4,4,3,4,1,3,4,4,4,4,4,4,4,4
58,0,4176.410156,4175.384277,4175.384277,4178.461426,4171.281738,4170.769043,4173.333008,4169.743652,4147.692383,4146.666504,4146.153809,4143.07666,4175.897461,4167.179199,0,2042,2039,0,0,0,1491,960,2,3,4,4,3,4,1,3,4,4,4,4,4,4,4,4
59,0,4236.025391,4226.794922,4232.436035,4239.615234,4226.281738,4228.333008,4229.358887,4226.281738,4207.307617,4207.820313,4209.871582,4208.333008,4239.102539,4230.384277,0,2041,2038,0,0,0,1491,967,2,3,4,4,3,4,1,3,4,4,4,4,4,4,4,4
60,0,4200.07666,4184.179199,4193.922852,4203.666504,4183.153809,4189.307617,4192.897461,4189.820313,4171.871582,4172.384277,4171.358887,4162.641113,4201.102539,4191.358887,0,2041,2040,0,0,0,1491,975,2,3,4,4,3,4,1,3,4,4,4,4,4,4,4,4
61,0,4208.12793,4194.281738,4204.538574,4210.692383,4189.666504,4198.384277,4196.846191,4197.358887,4184.538574,4182.487305,4181.461426,4175.307617,4209.666504,4204.025391,0,2042,2042,0,0,0,1491,983,2,3,4,4,3,4,1,3,4,4,4,4,4,4,4,4
62,0,4106.512695,4104.461426,4104.974121,4114.205078,4100.871582,4102.410156,4096.769043,4099.333008,4084.974121,4082.922852,4083.436035,4077.794922,4112.666504,4106.512695,0,2044,2045,0,0,0,1491,991,2,3,4,4,3,4,1,3,4,4,4,4,4,4,4,4
63,0,4187.666504,4181,4178.94873,4190.230469,4182.538574,4175.871582,4174.333008,4177.922852,4166.12793,4164.07666,4168.179199,4158.94873,4189.205078,4184.07666,0,2046,2046,0,0,0,1491,999,2,3,4,4,3,4,1,3,4,4,4,4,4,4,4,4
64,0,4139.384277,4131.179199,4126.05127,4128.615234,4122.974121,4120.410156,4120.410156,4125.538574,4129.12793,4121.94873,4130.153809,4118.358887,4137.333008,4134.769043,259,2046,2048,0,0,0,1492,7,2,3,4,4,3,4,1,3,4,4,4,4,4,4,4,4
65,0,4260.12793,4274.487305,4253.461426,4255,4249.871582,4249.358887,4249.871582,4248.846191,4245.256348,4237.05127,4241.153809,4229.358887,4260.641113,4250.384277,312,2045,2045,0,0,0,1492,15,2,3,4,4,3,4,1,3,4,4,4,4,4,4,4,4
66,0,4121.12793,4111.897461,4111.384277,4118.05127,4109.846191,4104.717773,4103.692383,4106.256348,4088.820313,4085.230469,4087.281738,4084.205078,4119.589844,4108.307617,402,2044,2045,0,0,0,1492,24,2,3,4,4,3,4,1,3,4,4,4,4,4,4,4,4
67,0,4200.743652,4149.461426,4183.307617,4191.512695,4185.358887,4178.179199,4179.205078,4181.256348,4156.12793,4156.641113,4156.12793,4157.666504,4192.538574,4182.281738,460,2043,2043,0,0,0,1492,32,2,3,4,4,3,4,1,3,4,4,4,4,4,4,4,4
68,0,4249.205078,4205.615234,4234.846191,4242.538574,4237.410156,4233.820313,4231.769043,4233.307617,4206.641113,4208.692383,4208.179199,4205.102539,4239.974121,4231.769043,353,2042,2041,0,0,0,1492,39,2,3,4,4,3,4,1,3,4,4,4,4,4,4,4,4
69,0,4247.769043,4213.922852,4232.897461,4240.07666,4230.846191,4230.846191,4224.692383,4235.974121,4221.615234,4218.538574,4222.12793,4218.025391,4244.179199,4241.102539,401,2041,2042,0,0,0,1492,46,2,3,4,4,3,4,1,3,4,4,4,4,4,4,4,4
70,0,4280.641113,4253.461426,4266.794922,4275,4266.281738,4264.743652,4264.743652,4268.333008,4254.487305,4249.871582,4250.897461,4248.333008,4278.589844,4270.897461,93,2040,2044,0,0,0,1492,54,2,3,4,4,3,4,1,3,4,4,4,4,4,4,4,4
71,0,4165.641113,4168.717773,4156.410156,4162.563965,4154.358887,4152.820313,4151.794922,4151.794922,4135.897461,4136.922852,4137.94873,4136.410156,4163.589844,4156.410156,346,2041,2045,0,0,0,1492,62,2,3,4,4,3,4,1,3,4,4,4,4,4,4,4,4
72,0,4109.743652,4138.974121,4100,4101.025391,4098.974121,4096.922852,4087.692383,4100,4091.794922,4090.769043,4093.846191,4083.589844,4109.743652,4104.102539,923,2043,2046,0,0,0,1492,69,2,3,4,4,3,4,1,3,4,4,4,4,4,4,4,4
73,0,4196.846191,4207.102539,4181.974121,4170.692383,4179.922852,4181.974121,4175.820313,4185.05127,4181.461426,4178.384277,4179.410156,4163,4191.717773,4186.07666,885,2043,2045,0,0,0,1492,78,2,3,4,4,3,4,1,3,4,4,4,4,4,4,4,4
74,0,4223.512695,4203.512695,4206.07666,4179.922852,4194.281738,4202.487305,4204.538574,4204.025391,4207.102539,4205.05127,4208.641113,4194.281738,4214.794922,4215.307617,360,2044,2046,0,0,0,1492,86,2,3,4,4,3,4,1,3,4,4,4,4,4,4,4,4
75,0,4172.410156,4160.102539,4161.12793,4138.563965,4150.358887,4157.025391,4154.461426,4156,4154.974121,4149.846191,4156.512695,4139.07666,4166.256348,4165.230469,593,2044,2042,0,0,0,1492,94,2,3,4,4,3,4,1,3,4,4,4,4,4,4,4,4
76,0,4289.922852,4287.871582,4281.205078,4261.717773,4277.102539,4277.615234,4271.974121,4276.589844,4271.974121,4269.410156,4276.589844,4259.153809,4281.717773,4282.743652,990,2044,2042,0,0,0,1492,103,2,3,4,4,3,4,1,3,4,4,4,4,4,4,4,4
77,0,4128.410156,4119.179199,4116.102539,4094.05127,4113.538574,4113.025391,4113.025391,4113.538574,4110.974121,4112,4115.07666,4099.179199,4121.230469,4120.717773,477,2042,2040,0,0,0,1492,110,2,3,4,4,3,4,1,3,4,4,4,4,4,4,4,4
78,0,4214.743652,4194.230469,4202.94873,4182.436035,4202.436035,4200.384277,4204.487305,4199.358887,4187.05127,4184.487305,4186.025391,4174.230469,4209.615234,4198.846191,360,2042,2041,0,0,0,1492,118,2,3,4,4,3,4,1,3,4,4,4,4,4,4,4,4
79,0,4189.333008,4171.897461,4176.512695,4156,4176,4172.922852,4177.538574,4172.922852,4158.05127,4152.922852,4155.487305,4149.333008,4179.589844,4170.871582,593,2042,2041,0,0,0,1492,125,2,3,4,4,3,4,1,3,4,4,4,4,4,4,4,4
80,0,4178.820313,4188.563965,4167.025391,4141.384277,4166.512695,4163.436035,4170.102539,4162.410156,4149.07666,4144.974121,4147.025391,4135.743652,4167.025391,4161.384277,990,2041,2044,0,0,0,1492,133,2,3,4,4,3,4,1,3,4,4,4,4,4,4,4,4
81,0,4185.230469,4210.358887,4179.07666,4147.794922,4177.025391,4172.922852,4176,4169.846191,4158.05127,4153.94873,4159.589844,4147.794922,4179.07666,4172.922852,477,2042,2046,0,0,0,1492,141,2,3,4,4,3,4,1,3,4,4,4,4,4,4,4,4
82,0,4118.615234,4137.589844,4116.05127,4085.281738,4113.487305,4109.384277,4110.922852,4104.769043,4093.487305,4090.410156,4092.974121,4084.769043,4115.538574,4108.871582,360,2044,2045,0,0,0,1492,149,2,3,4,4,3,4,1,3,4,4,4,4,4,4,4,4
83,0,4273.05127,4288.94873,4269.974121,4240.743652,4268.436035,4266.384277,4271.512695,4260.230469,4242.281738,4242.794922,4239.717773,4229.461426,4266.897461,4261.256348,593,2046,2046,0,0,0,1492,157,2,3,4,4,3,4,1,3,4,4,4,4,4,4,4,4
84,0,4252.692383,4272.692383,4246.538574,4221.922852,4243.461426,4241.922852,4245.512695,4241.922852,4230.12793,4228.589844,4230.641113,4221.922852,4245.512695,4247.05127,990,2046,2044,0,0,0,1492,166,2,3,4,4,3,4,1,3,4,4,4,4,4,4,4,4
85,0,4178.615234,4201.692383,4171.436035,4154.512695,4174,4170.922852,4174.512695,4170.922852,4161.692383,4156.05127,4158.102539,4149.897461,4171.436035,4171.94873,477,2045,2044,0,0,0,1492,174,2,3,4,4,3,4,1,3,4,4,4,4,4,4,4,4
86,0,4100.153809,4112.461426,4090.922852,4070.410156,4094,4090.410156,4097.589844,4088.358887,4076.563965,4072.461426,4074.512695,4064.769043,4091.94873,4092.974121,360,2044,2042,0,0,0,1492,181,2,3,4,4,3,4,1,3,4,4,4,4,4,4,4,4
87,0,4275.205078,4282.384277,4264.94873,4244.436035,4264.94873,4261.871582,4267,4265.974121,4257.256348,4255.717773,4259.307617,4245.974121,4273.666504,4280.333008,593,2042,2041,0,0,0,1492,189,2,3,4,4,3,4,1,3,4,4,4,4,4,4,4,4
88,0,4263.05127,4268.179199,4256.897461,4243.05127,4257.410156,4254.846191,4258.436035,4258.436035,4243.563965,4241,4243.563965,4228.692383,4262.025391,4266.641113,990,2041,2042,0,0,0,1492,197,2,3,4,4,3,4,1,3,4,4,4,4,4,4,4,4
89,0,4250.12793,4236.794922,4243.974121,4225,4234.743652,4239.358887,4243.461426,4238.333008,4221.922852,4217.820313,4220.897461,4214.743652,4242.436035,4248.07666,477,2040,2043,0,0,0,1492,204,2,3,4,4,3,4,1,3,4,4,4,4,4,4,4,4
90,0,4173.589844,4159.743652,4165.897461,4143.333008,4152.563965,4166.410156,4165.384277,4160.256348,4141.281738,4137.179199,4138.205078,4134.102539,4165.384277,4173.07666,360,2039,2045,0,0,0,1492,212,2,3,4,4,3,4,1,3,4,4,4,4,4,4,4,4
91,0,4192.589844,4191.05127,4185.410156,4167.974121,4181.307617,4187.974121,4184.897461,4183.358887,4165.922852,4162.333008,4163.871582,4153.615234,4187.461426,4197.717773,593,2039,2046,0,0,0,1492,221,2,3,4,4,3,4,1,3,4,4,4,4,4,4,4,4
92,0,4118.717773,4108.974121,4110.512695,4091.538574,4113.07666,4108.974121,4110.512695,4108.974121,4101.794922,4099.743652,4102.307617,4085.384277,4116.153809,4127.94873,990,2038,2049,0,0,0,1492,228,2,3,4,4,3,4,1,3,4,4,4,4,4,4,4,4
93,0,4242.025391,4239.461426,4238.436035,4214.333008,4242.025391,4241,4241.512695,4232.281738,4222.538574,4221.512695,4218.436035,4200.487305,4239.461426,4249.205078,477,2040,2050,0,0,0,1492,236,2,3,4,4,3,4,1,3,4,4,4,4,4,4,4,4
94,0,4269.512695,4280.794922,4267.461426,4240.794922,4268.487305,4270.025391,4267.974121,4257.717773,4246.94873,4244.384277,4242.333008,4232.07666,4268.487305,4276.692383,360,2039,2049,0,0,0,1492,243,2,3,4,4,3,4,1,3,4,4,4,4,4,4,4,4
95,0,4188.589844,4202.436035,4184.487305,4160.897461,4188.07666,4184.487305,4185.512695,4177.307617,4166.538574,4159.358887,4162.436035,4151.153809,4189.615234,4193.205078,593,2041,2046,0,0,0,1492,251,2,3,4,4,3,4,1,3,4,4,4,4,4,4,4,4
96,0,4124.205078,4140.615234,4118.05127,4096,4124.717773,4118.563965,4119.07666,4111.897461,4100.615234,4095.487305,4099.07666,4083.179199,4119.589844,4129.846191,990,2040,2045,0,0,0,1492,259,2,3,4,4,3,4,1,3,4,4,4,4,4,4,4,4
97,0,4106.205078,4124.153809,4100.563965,4073.897461,4105.179199,4101.07666,4098.512695,4094.922852,4089.281738,4088.769043,4089.281738,4073.897461,4101.07666,4120.563965,477,2041,2043,0,0,0,1492,267,2,3,4,4,3,4,1,3,4,4,4,4,4,4,4,4
98,0,4197.922852,4210.743652,4196.384277,4169.205078,4194.846191,4197.410156,4197.922852,4188.179199,4175.358887,4173.307617,4171.769043,4158.94873,4195.871582,4208.692383,360,2042,2042,0,0,0,1492,276,2,3,4,4,3,4,1,3,4,4,4,4,4,4,4,4
99,0,4279.512695,4287.205078,4274.897461,4250.794922,4267.205078,4275.410156,4274.897461,4267.205078,4254.897461,4249.769043,4252.846191,4241.563965,4277.974121,4288.743652,593,2044,2040,0,0,0,1492,284,2,3,4,4,3,4,1,3,4,4,4,4,4,4,4,4
100,0,4143.538574,4150.717773,4139.436035,4117.384277,4136.358887,4139.436035,4142.512695,4136.358887,4128.153809,4124.05127,4127.12793,4109.179199,4148.153809,4159.436035,990,2045,2039,0,0,0,1492,292,2,3,4,4,3,4,1,3,4,4,4,4,4,4,4,4
101,0,4161.897461,4159.333008,4162.410156,4140.358887,4164.974121,4160.871582,4171.12793,4156.769043,4140.871582,4140.358887,4140.358887,4123.436035,4166.512695,4175.743652,477,2046,2038,0,0,0,1492,300,2,3,4,4,3,4,1,3,4,4,4,4,4,4,4,4
102,0,4108.512695,4107.487305,4103.897461,4079.281738,4103.897461,4103.897461,4108.512695,4099.281738,4082.358887,4083.384277,4084.922852,4074.153809,4106.461426,4117.743652,360,2048,2040,0,0,0,1492,307,2,3,4,4,3,4,1,3,4,4,4,4,4,4,4,4
103,0,4100.615234,4118.05127,4090.871582,4064.717773,4092.922852,4096,4091.897461,4089.846191,4078.05127,4077.025391,4078.05127,4059.589844,4094.974121,4108.820313,593,2047,2039,0,0,0,1492,315,2,3,4,4,3,4,1,3,4,4,4,4,4,4,4,4
104,0,4105.230469,4113.436035,4098.563965,4067.281738,4097.025391,4096.512695,4093.436035,4094.461426,4090.358887,4089.333008,4092.922852,4070.871582,4102.666504,4122.666504,990,2046,2038,0,0,0,1492,323,2,3,4,4,3,4,1,3,4,4,4,4,4,4,4,4
105,0,4140.102539,4134.461426,4138.05127,4107.281738,4134.974121,4131.384277,4133.94873,4133.94873,4129.333008,4127.794922,4131.384277,4111.384277,4143.179199,4160.615234,477,2046,2040,0,0,0,1492,330,2,3,4,4,3,4,1,3,4,4,4,4,4,4,4,4
106,0,4108.974121,4126.922852,4107.94873,4081.794922,4110,4107.436035,4111.025391,4107.436035,4099.230469,4093.589844,4097.179199,4074.102539,4112.563965,4122.820313,360,2046,2043,0,0,0,1492,338,2,3,4,4,3,4,1,3,4,4,4,4,4,4,4,4
107,0,4258.12793,4288.897461,4254.025391,4223.769043,4254.538574,4254.538574,4255.563965,4257.615234,4257.615234,4252.487305,4258.641113,4231.461426,4262.230469,4275.05127,593,2046,2044,0,0,0,1492,346,2,3,4,4,3,4,1,3,4,4,4,4,4,4,4,4
108,0,4207.563965,4216.281738,4202.94873,4168.589844,4206.025391,4203.461426,4203.461426,4206.025391,4201.922852,4200.897461,4202.94873,4176.281738,4212.179199,4223.461426,990,2047,2045,0,0,0,1492,354,2,3,4,4,3,4,1,3,4,4,4,4,4,4,4,4
109,0,4259.615234,4263.205078,4256.025391,4223.205078,4257.563965,4254.487305,4252.94873,4252.94873,4245.256348,4245.256348,4248.846191,4227.820313,4259.615234,4274.487305,477,2045,2045,0,0,0,1492,362,2,3,4,4,3,4,1,3,4,4,4,4,4,4,4,4
110,0,4244.179199,4271.871582,4242.12793,4213.410156,4234.94873,4241.102539,4235.974121,4238.538574,4239.05127,4235.974121,4244.692383,4217,4242.12793,4262.12793,360,2045,2045,0,0,0,1492,370,2,3,4,4,3,4,1,3,4,4,4,4,4,4,4,4
111,0,4105.487305,4143.436035,4107.025391,4080.358887,4099.333008,4109.589844,4107.025391,4104.461426,4100.358887,4099.333008,4103.436035,4074.717773,4106,4120.871582,593,2045,2044,0,0,0,1492,377,2,3,4,4,3,4,1,3,4,4,4,4,4,4,4,4
112,0,4231.410156,4264.230469,4230.897461,4206.794922,4230.897461,4232.94873,4233.974121,4229.358887,4220.12793,4219.615234,4220.641113,4206.281738,4236.538574,4246.794922,990,2043,2045,0,0,0,1492,385,2,3,4,4,3,4,1,3,4,4,4,4,4,4,4,4
113,0,4186.384277,4228.94873,4186.897461,4167.410156,4188.94873,4188.94873,4186.384277,4185.871582,4174.589844,4172.538574,4174.07666,4157.666504,4189.974121,4201.769043,477,2043,2045,0,0,0,1492,394,2,3,4,4,3,4,1,3,4,4,4,4,4,4,4,4
114,0,4137.538574,4172.410156,4138.05127,4117.538574,4134.974121,4138.563965,4133.436035,4138.563965,4133.436035,4132.410156,4137.538574,4113.436035,4138.05127,4160.102539,360,2042,2046,0,0,0,1492,402,2,3,4,4,3,4,1,3,4,4,4,4,4,4,4,4
115,0,4171.025391,4192.563965,4168.974121,4148.461426,4166.922852,4168.461426,4168.974121,4175.12793,4175.12793,4173.589844,4178.717773,4155.12793,4177.692383,4199.743652,593,2042,2046,0,0,0,1492,409,2,3,4,4,3,4,1,3,4,4,4,4,4,4,4,4
116,0,4260.897461,4288.589844,4260.384277,4243.974121,4260.897461,4259.358887,4263.974121,4263.974121,4259.358887,4255.769043,4260.384277,4234.230469,4267.563965,4282.94873,990,2042,2047,0,0,0,1492,418,2,3,4,4,3,4,1,3,4,4,4,4,4,4,4,4
117,0,4154.05127,4168.410156,4152.512695,4132,4147.384277,4149.94873,4148.410156,4152,4154.563965,4153.538574,4159.179199,4130.461426,4157.12793,4178.666504,477,2043,2049,0,0,0,1492,426,2,3,4,4,3,4,1,3,4,4,4,4,4,4,4,4
118,0,4170,4169.487305,4167.436035,4146.410156,4157.179199,4166.922852,4164.358887,4168.461426,4170,4170,4172.563965,4144.358887,4174.615234,4194.615234,360,2043,2049,0,0,0,1492,434,2,3,4,4,3,4,1,3,4,4,4,4,4,4,4,4
119,0,4125.487305,4135.743652,4122.922852,4104.974121,4109.07666,4120.871582,4120.358887,4122.922852,4117.794922,4114.205078,4118.820313,4095.230469,4130.615234,4142.922852,593,2043,2048,0,0,0,1492,441,2,3,4,4,3,4,1,3,4,4,4,4,4,4,4,4
120,0,4147.12793,4160.974121,4142,4123.538574,4131.230469,4139.94873,4136.358887,4142.512695,4145.589844,4142.512695,4147.641113,4120.974121,4150.717773,4164.563965,990,2042,2048,0,0,0,1492,448,2,3,4,4,3,4,1,3,4,4,4,4,4,4,4,4
121,0,4258.07666,4267.820313,4254.487305,4238.589844,4252.94873,4256.538574,4253.974121,4259.615234,4263.717773,4263.205078,4265.769043,4229.358887,4261.153809,4278.07666,477,2043,2045,0,0,0,1492,456,2,3,4,4,3,4,1,3,4,4,4,4,4,4,4,4
122,0,4172.666504,4180.358887,4167.538574,4152.153809,4166,4165.487305,4165.487305,4174.205078,4180.871582,4176.769043,4184.461426,4149.07666,4178.307617,4197.281738,360,2043,2043,0,0,0,1492,464,2,3,4,4,3,4,1,3,4,4,4,4,4,4,4,4
123,0,4120.05127,4135.94873,4114.922852,4099.538574,4115.94873,4115.436035,4112.358887,4119.025391,4126.717773,4119.538574,4127.230469,4094.922852,4128.769043,4142.102539,593,2042,2040,0,0,0,1492,473,2,3,4,4,3,4,1,3,4,4,4,4,4,4,4,4
124,0,4161.897461,4183.94873,4162.410156,4144.461426,4163.94873,4165.487305,4159.846191,4161.384277,4166,4161.897461,4165.487305,4137.281738,4168.563965,4179.846191,990,2043,2041,0,0,0,1492,481,2,3,4,4,3,4,1,3,4,4,4,4,4,4,4,4
125,0,4176.974121,4204.666504,4179.538574,4158.512695,4175.94873,4177.487305,4174.410156,4180.563965,4185.179199,4182.615234,4186.717773,4161.07666,4184.153809,4198.512695,477,2045,2042,0,0,0,1492,489,2,3,4,4,3,4,1,3,4,4,4,4,4,4,4,4
126,0,4114,4155.538574,4115.025391,4098.102539,4115.538574,4115.025391,4111.94873,4118.102539,4122.205078,4118.102539,4123.230469,4089.384277,4121.692383,4134,360,2045,2042,0,0,0,1492,496,2,3,4,4,3,4,1,3,4,4,4,4,4,4,4,4
127,0,4102.615234,4145.692383,4100.563965,4083.12793,4103.641113,4101.589844,4096.974121,4103.12793,4116.974121,4112.871582,4122.102539,4081.589844,4110.820313,4126.717773,593,2044,2042,0,0,0,1492,504,2,3,4,4,3,4,1,3,4,4,4,4,4,4,4,4
128,0,4276.07666,4310.94873,4272.487305,4253,4274.538574,4273.512695,4273,4279.666504,4296.589844,4291.461426,4299.666504,4257.102539,4285.820313,4298.641113,990,2044,2041,0,0,0,1492,511,2,3,4,4,3,4,1,3,4,4,4,4,4,4,4,4
0,0,4094.102539,4124.358887,4089.487305,4074.615234,4092.563965,4089.487305,4090,4099.743652,4111.025391,4104.871582,4111.025391,4073.589844,4100.769043,4111.025391,259,2044,2040,0,0,0,1492,519,2,3,4,4,3,4,1,3,4,4,4,4,4,4,4,4
1,0,4163.281738,4194.563965,4155.589844,4148.410156,4160.717773,4155.07666,4151.487305,4168.410156,4188.410156,4183.794922,4192.512695,4152,4171.487305,4189.436035,312,2044,2040,0,0,0,1492,528,2,3,4,4,3,4,1,3,4,4,4,4,4,4,4,4
2,0,4287.717773,4317.974121,4281.05127,4272.846191,4282.07666,4283.102539,4277.974121,4293.871582,4315.922852,4310.794922,4318.487305,4268.743652,4298.487305,4314.897461,401,2044,2039,0,0,0,1492,536,2,3,4,4,3,4,1,3,4,4,4,4,4,4,4,4
3,0,4207.307617,4224.230469,4200.641113,4181.666504,4188.846191,4198.07666,4193.974121,4207.820313,4230.384277,4224.743652,4230.897461,4187.820313,4215,4228.333008,453,2045,2041,0,0,0,1492,544,2,3,4,4,3,4,1,3,4,4,4,4,4,4,4,4
4,0,4152.820313,4165.12793,4147.179199,4126.666504,4134.871582,4143.07666,4138.461426,4152.307617,4175.384277,4172.307617,4176.922852,4135.384277,4159.487305,4171.794922,352,2045,2042,0,0,0,1492,551,2,3,4,4,3,4,1,3,4,4,4,4,4,4,4,4
5,0,4133.179199,4149.07666,4131.12793,4113.179199,4129.589844,4127.025391,4123.436035,4138.307617,4155.743652,4154.205078,4159.333008,4114.205078,4140.358887,4154.717773,401,2047,2044,0,0,0,1492,559,2,3,4,4,3,4,1,3,4,4,4,4,4,4,4,4
6,0,4108.205078,4129.743652,4106.153809,4081.538574,4105.641113,4100,4096.922852,4116.410156,4135.897461,4131.794922,4137.94873,4097.94873,4117.94873,4136.410156,93,2046,2044,0,0,0,1492,566,2,3,4,4,3,4,1,3,4,4,4,4,4,4,4,4
7,0,4096.615234,4132,4097.12793,4067.384277,4097.12793,4098.666504,4088.922852,4106.358887,4126.871582,4121.230469,4124.820313,4081.743652,4108.922852,4123.281738,346,2044,2043,0,0,0,1492,574,2,3,4,4,3,4,1,3,4,4,4,4,4,4,4,4
8,0,4277.153809,4303.820313,4279.717773,4248.436035,4279.717773,4279.205078,4267.922852,4285.871582,4306.897461,4303.820313,4309.461426,4264.333008,4288.436035,4303.307617,922,2043,2044,0,0,0,1492,582,2,3,4,4,3,4,1,3,4,4,4,4,4,4,4,4
9,0,4088.615234,4096.307617,4090.666504,4059.897461,4091.179199,4086.05127,4084,4097.846191,4114.769043,4111.179199,4116.307617,4077.846191,4097.333008,4112.717773,882,2043,2043,0,0,0,1492,590,2,3,4,4,3,4,1,3,4,4,4,4,4,4,4,4
10,0,4232.538574,4241.769043,4235.102539,4205.871582,4239.205078,4234.589844,4232.538574,4241.256348,4253.563965,4247.922852,4249.974121,4213.563965,4241.256348,4253.05127,359,2042,2045,0,0,0,1492,599,2,3,4,4,3,4,1,3,4,4,4,4,4,4,4,4
11,0,4165.692383,4182.615234,4164.666504,4136.974121,4169.794922,4166.205078,4156.461426,4172.871582,4196.974121,4189.794922,4196.461426,4152.871582,4180.563965,4190.307617,594,2042,2044,0,0,0,1492,607,2,3,4,4,3,4,1,3,4,4,4,4,4,4,4,4
12,0,4146.563965,4169.12793,4147.07666,4124,4151.692383,4149.641113,4147.589844,4157.846191,4177.846191,4172.717773,4177.846191,4133.743652,4165.025391,4166.05127,987,2042,2045,0,0,0,1492,615,2,3,4,4,3,4,1,3,4,4,4,4,4,4,4,4
13,0,4147.07666,4169.12793,4147.07666,4127.589844,4148.615234,4149.12793,4150.153809,4157.846191,4170.666504,4169.641113,4173.743652,4135.281738,4161.436035,4165.025391,478,2040,2045,0,0,0,1492,623,2,3,4,4,3,4,1,3,4,4,4,4,4,4,4,4
14,0,4129.230469,4159.487305,4125.12793,4107.179199,4128.717773,4127.692383,4117.436035,4138.974121,4164.102539,4161.538574,4166.666504,4120.512695,4143.07666,4155.897461,359,2042,2046,0,0,0,1492,631,2,3,4,4,3,4,1,3,4,4,4,4,4,4,4,4
15,0,4173.641113,4212.615234,4174.153809,4155.179199,4181.846191,4176.717773,4166.461426,4184.410156,4213.641113,4209.538574,4214.153809,4164.410156,4190.05127,4201.846191,594,2041,2048,0,0,0,1492,638,2,3,4,4,3,4,1,3,4,4,4,4,4,4,4,4
16,0,4244.12793,4268.230469,4246.179199,4227.717773,4250.281738,4244.641113,4241.05127,4251.820313,4276.94873,4271.820313,4279.512695,4239,4257.974121,4264.641113,0,2039,2049,0,0,0,1492,645,2,3,4,4,3,4,1,3,4,4,4,4,4,4,4,4
17,0,4124.563965,4144.563965,4124.563965,4110.205078,4126.102539,4124.563965,4119.436035,4130.717773,4147.12793,4141.487305,4148.153809,4108.153809,4131.230469,4134.307617,0,2038,2049,0,0,0,1492,653,2,3,4,4,3,4,1,3,4,4,4,4,4,4,4,4
18,0,4149.07666,4192.666504,4149.07666,4133.692383,4150.615234,4150.615234,4142.922852,4156.256348,4175.743652,4170.615234,4176.769043,4134.717773,4156.256348,4164.974121,0,2038,2048,0,0,0,1492,661,2,3,4,4,3,4,1,3,4,4,4,4,4,4,4,4
19,0,4260.589844,4330.846191,4260.589844,4243.153809,4266.743652,4265.205078,4254.94873,4271.358887,4299.563965,4293.410156,4302.12793,4255.974121,4279.563965,4288.281738,0,2039,2046,0,0,0,1492,669,2,3,4,4,3,4,1,3,4,4,4,4,4,4,4,4
20,0,4122.563965,4189.230469,4121.538574,4104.615234,4128.205078,4127.692383,4116.922852,4131.281738,4151.794922,4143.07666,4152.820313,4105.641113,4137.94873,4141.025391,0,2040,2045,0,0,0,1492,677,2,3,4,4,3,4,1,3,4,4,4,4,4,4,4,4
21,0,4233.256348,4271.205078,4228.12793,4210.179199,4219.410156,4229.666504,4219.922852,4234.281738,4250.179199,4244.025391,4251.205078,4216.846191,4236.333008,4244.025391,0,2042,2043,0,0,0,1492,686,2,3,4,4,3,4,1,3,4,4,4,4,4,4,4,4
22,0,4154.769043,4179.897461,4148.102539,4136.820313,4138.358887,4148.102539,4140.410156,4154.769043,4172.717773,4169.12793,4172.717773,4136.307617,4157.333008,4164.512695,0,2043,2044,0,0,0,1492,694,2,3,4,4,3,4,1,3,4,4,4,4,4,4,4,4
23,0,4175.230469,4174.717773,4170.615234,4160.871582,4168.05127,4168.05127,4161.384277,4177.281738,4196.769043,4192.153809,4198.820313,4156.256348,4180.871582,4184.461426,0,2044,2041,0,0,0,1492,701,2,3,4,4,3,4,1,3,4,4,4,4,4,4,4,4
24,0,4274.692383,4245.461426,4269.563965,4252.12793,4267.512695,4269.563965,4264.94873,4279.820313,4295.717773,4290.589844,4295.205078,4261.358887,4281.358887,4282.384277,0,2044,2038,0,0,0,1492,709,2,3,4,4,3,4,1,3,4,4,4,4,4,4,4,4
25,0,4259.153809,4231.461426,4251.461426,4234.025391,4254.538574,4255.05127,4255.05127,4261.717773,4270.94873,4266.846191,4266.846191,4237.615234,4262.743652,4260.179199,0,2046,2038,0,0,0,1492,717,2,3,4,4,3,4,1,3,4,4,4,4,4,4,4,4
26,0,4153.94873,4110.871582,4143.179199,4125.743652,4143.692383,4137.025391,4136.512695,4148.820313,4166.256348,4164.205078,4169.333008,4135.487305,4155.487305,4159.07666,0,2046,2039,0,0,0,1492,724,2,3,4,4,3,4,1,3,4,4,4,4,4,4,4,4
27,0,4249.410156,4187.358887,4240.179199,4224.281738,4236.07666,4233.512695,4231.461426,4246.333008,4265.307617,4262.743652,4268.384277,4231.461426,4253.512695,4258.641113,0,2047,2038,0,0,0,1492,732,2,3,4,4,3,4,1,3,4,4,4,4,4,4,4,4
28,0,4091.230469,4049.179199,4085.07666,4074.307617,4082.512695,4084.563965,4078.922852,4093.281738,4105.07666,4103.025391,4104.05127,4072.769043,4095.846191,4099.94873,0,2047,2039,0,0,0,1492,741,2,3,4,4,3,4,1,3,4,4,4,4,4,4,4,4
29,0,4267.256348,4254.94873,4261.615234,4259.563965,4263.666504,4260.589844,4252.384277,4273.922852,4289.820313,4288.794922,4289.820313,4258.025391,4275.461426,4279.563965,0,2047,2040,0,0,0,1492,749,2,3,4,4,3,4,1,3,4,4,4,4,4,4,4,4
30,0,4097.179199,4067.436035,4092.563965,4099.230469,4093.589844,4092.563965,4087.436035,4104.871582,4117.692383,4116.153809,4119.230469,4080.769043,4104.358887,4101.794922,0,2048,2042,0,0,0,1492,757,2,3,4,4,3,4,1,3,4,4,4,4,4,4,4,4
31,0,4139.179199,4090.461426,4134.563965,4137.641113,4134.05127,4134.563965,4126.871582,4144.307617,4154.563965,4152,4158.666504,4125.846191,4143.281738,4141.230469,0,2047,2041,0,0,0,1492,764,2,3,4,4,3,4,1,3,4,4,4,4,4,4,4,4
32,0,4238.641113,4222.230469,4234.025391,4233,4242.743652,4232.487305,4224.281738,4244.281738,4254.538574,4250.94873,4254.025391,4223.256348,4243.256348,4241.717773,0,2046,2043,0,0,0,1492,772,2,3,4,4,3,4,1,3,4,4,4,4,4,4,4,4
33,0,4122.205078,4120.666504,4116.05127,4117.589844,4119.641113,4112.461426,4110.410156,4121.692383,4130.922852,4126.820313,4127.846191,4096.05127,4123.743652,4119.641113,0,2046,2044,0,0,0,1492,779,2,3,4,4,3,4,1,3,4,4,4,4,4,4,4,4
34,0,4248.743652,4224.12793,4240.538574,4245.666504,4226.179199,4238.487305,4237.461426,4244.641113,4253.871582,4251.307617,4253.871582,4227.205078,4250.794922,4245.153809,0,2046,2043,0,0,0,1492,787,2,3,4,4,3,4,1,3,4,4,4,4,4,4,4,4
35,0,4115.487305,4102.153809,4112.410156,4125.230469,4103.179199,4113.436035,4111.384277,4120.102539,4120.615234,4118.563965,4118.563965,4092.922852,4121.12793,4110.871582,0,2045,2043,0,0,0,1492,796,2,3,4,4,3,4,1,3,4,4,4,4,4,4,4,4
36,0,4122.05127,4124.615234,4117.94873,4131.794922,4123.07666,4118.974121,4116.410156,4130.769043,4134.358887,4130.769043,4133.333008,4105.641113,4129.230469,4122.05127,0,2044,2044,0,0,0,1492,804,2,3,4,4,3,4,1,3,4,4,4,4,4,4,4,4
37,0,4091.641113,4075.743652,4082.922852,4095.743652,4089.07666,4085.487305,4084.461426,4096.769043,4107.538574,4103.436035,4105.487305,4075.743652,4099.846191,4092.153809,0,2044,2045,0,0,0,1492,812,2,3,4,4,3,4,1,3,4,4,4,4,4,4,4,4
38,0,4110.102539,4116.256348,4104.974121,4118.307617,4110.102539,4106.512695,4106,4113.692383,4119.846191,4117.794922,4118.820313,4089.589844,4117.794922,4104.461426,0,2043,2045,0,0,0,1492,821,2,3,4,4,3,4,1,3,4,4,4,4,4,4,4,4
39,0,4196.230469,4243.410156,4191.102539,4201.871582,4196.743652,4189.563965,4187.512695,4201.871582,4209.05127,4207.512695,4209.563965,4182.897461,4201.358887,4193.666504,0,2042,2045,0,0,0,1492,828,2,3,4,4,3,4,1,3,4,4,4,4,4,4,4,4
40,0,4205.153809,4239,4201.05127,4211.820313,4204.12793,4201.563965,4197.974121,4213.358887,4220.025391,4216.436035,4214.897461,4187.717773,4209.769043,4204.641113,0,2042,2047,0,0,0,1492,836,2,3,4,4,3,4,1,3,4,4,4,4,4,4,4,4
41,0,4202.743652,4207.358887,4196.589844,4207.358887,4196.589844,4192.487305,4189.410156,4203.256348,4216.589844,4210.436035,4211.461426,4183.769043,4206.333008,4201.717773,0,2043,2047,0,0,0,1492,843,2,3,4,4,3,4,1,3,4,4,4,4,4,4,4,4
42,0,4093.794922,4104.05127,4086.102539,4094.820313,4088.666504,4080.974121,4076.358887,4091.743652,4108.666504,4101.487305,4106.615234,4075.846191,4099.436035,4091.230469,0,2042,2048,0,0,0,1492,850,2,3,4,4,3,4,1,3,4,4,4,4,4,4,4,4
43,0,4183.743652,4191.436035,4180.153809,4187.846191,4182.717773,4179.641113,4169.897461,4187.333008,4196.05127,4191.94873,4195.538574,4163.230469,4189.897461,4181.179199,0,2042,2049,0,0,0,1492,858,2,3,4,4,3,4,1,3,4,4,4,4,4,4,4,4
44,0,4254.436035,4232.384277,4247.256348,4257,4243.666504,4243.666504,4233.410156,4256.487305,4272.897461,4272.897461,4275.974121,4243.666504,4259.05127,4257.512695,0,2042,2048,0,0,0,1492,866,2,3,4,4,3,4,1,3,4,4,4,4,4,4,4,4
45,0,4177.436035,4153.333008,4165.641113,4181.025391,4166.153809,4160,4155.897461,4176.410156,4196.410156,4196.410156,4196.410156,4158.974121,4180.512695,4175.384277,0,2042,2047,0,0,0,1492,874,2,3,4,4,3,4,1,3,4,4,4,4,4,4,4,4
46,0,4258.384277,4251.205078,4246.07666,4257.871582,4250.179199,4242.487305,4238.897461,4257.358887,4271.717773,4269.153809,4268.12793,4236.333008,4261.461426,4252.743652,0,2041,2046,0,0,0,1492,882,2,3,4,4,3,4,1,3,4,4,4,4,4,4,4,4
47,0,4265.871582,4257.153809,4254.07666,4261.769043,4251,4251.512695,4246.384277,4263.820313,4277.153809,4273.563965,4275.102539,4247.922852,4269.461426,4259.717773,0,2042,2043,0,0,0,1492,891,2,3,4,4,3,4,1,3,4,4,4,4,4,4,4,4
48,0,4189.281738,4174.410156,4181.589844,4190.820313,4171.333008,4176.974121,4174.922852,4184.666504,4194.922852,4192.358887,4195.436035,4165.692383,4191.333008,4181.589844,0,2043,2042,0,0,0,1492,899,2,3,4,4,3,4,1,3,4,4,4,4,4,4,4,4
49,0,4256.333008,4248.12793,4247.102539,4257.871582,4237.871582,4244.025391,4241.461426,4251.717773,4265.05127,4260.94873,4265.05127,4236.846191,4256.846191,4252.230469,0,2044,2039,0,0,0,1492,906,2,3,4,4,3,4,1,3,4,4,4,4,4,4,4,4
50,0,4203.307617,4192.025391,4191.512695,4200.230469,4191,4192.025391,4188.94873,4201.769043,4214.07666,4207.922852,4209.974121,4181.769043,4201.769043,4196.641113,0,2045,2039,0,0,0,1492,913,2,3,4,4,3,4,1,3,4,4,4,4,4,4,4,4
51,0,4218.333008,4170.641113,4209.102539,4210.12793,4208.07666,4200.897461,4200.384277,4216.794922,4226.025391,4224.487305,4226.025391,4199.871582,4218.846191,4212.179199,0,2045,2041,0,0,0,1492,921,2,3,4,4,3,4,1,3,4,4,4,4,4,4,4,4
52,0,4220.281738,4146.436035,4211.563965,4211.05127,4205.410156,4202.846191,4202.333008,4219.256348,4228.487305,4227.974121,4227.974121,4203.871582,4225.410156,4216.179199,0,2047,2039,0,0,0,1492,928,2,3,4,4,3,4,1,3,4,4,4,4,4,4,4,4
53,0,4158.717773,4094.615234,4148.974121,4150.512695,4145.384277,4146.922852,4143.333008,4155.641113,4160.769043,4156.153809,4155.12793,4128.461426,4159.230469,4146.410156,0,2046,2040,0,0,0,1492,936,2,3,4,4,3,4,1,3,4,4,4,4,4,4,4,4
54,0,4211.461426,4156.589844,4202.230469,4201.717773,4197.615234,4196.589844,4187.871582,4206.846191,4218.12793,4215.563965,4219.153809,4188.897461,4210.436035,4204.794922,0,2045,2039,0,0,0,1492,945,2,3,4,4,3,4,1,3,4,4,4,4,4,4,4,4
55,0,4204.897461,4151.05127,4199.769043,4201.307617,4196.692383,4190.538574,4185.922852,4203.871582,4214.641113,4213.102539,4216.692383,4185.410156,4207.461426,4203.358887,0,2045,2038,0,0,0,1492,953,2,3,4,4,3,4,1,3,4,4,4,4,4,4,4,4
56,0,4108.205078,4041.538574,4105.641113,4105.641113,4100.512695,4095.384277,4093.846191,4104.615234,4106.666504,4102.563965,4102.563965,4084.615234,4108.205078,4097.94873,0,2044,2037,0,0,0,1492,961,2,3,4,4,3,4,1,3,4,4,4,4,4,4,4,4
57,0,4172.717773,4087.07666,4167.589844,4165.025391,4159.384277,4157.333008,4153.743652,4163.487305,4163.487305,4161.436035,4157.846191,4147.589844,4170.153809,4158.358887,0,2044,2036,0,0,0,1492,969,2,3,4,4,3,4,1,3,4,4,4,4,4,4,4,4
58,0,4190.692383,4126.589844,4184.025391,4190.179199,4183.512695,4178.384277,4176.333008,4186.07666,4179.922852,4179.410156,4176.333008,4159.410156,4187.102539,4178.897461,0,2045,2037,0,0,0,1492,977,2,3,4,4,3,4,1,3,4,4,4,4,4,4,4,4
59,0,4284.794922,4241.205078,4278.12793,4288.897461,4277.615234,4270.94873,4266.846191,4282.743652,4284.281738,4283.256348,4285.820313,4265.820313,4281.205078,4280.179199,0,2045,2040,0,0,0,1492,985,2,3,4,4,3,4,1,3,4,4,4,4,4,4,4,4
60,0,4099.179199,4037.12793,4095.07666,4102.769043,4090.461426,4087.384277,4082.256348,4098.153809,4105.333008,4104.307617,4103.281738,4080.205078,4100.717773,4095.589844,0,2047,2045,0,0,0,1492,993,2,3,4,4,3,4,1,3,4,4,4,4,4,4,4,4
61,0,4199.615234,4120.641113,4196.025391,4202.692383,4191.922852,4191.410156,4187.307617,4198.589844,4200.641113,4198.07666,4196.538574,4172.94873,4204.230469,4197.05127,0,2045,2045,0,0,0,1493,1,2,3,4,4,3,4,1,3,4,4,4,4,4,4,4,4
62,0,4126.717773,4059.025391,4121.07666,4128.769043,4121.07666,4114.410156,4111.846191,4128.256348,4133.384277,4131.333008,4134.410156,4109.794922,4133.384277,4131.333008,0,2043,2045,0,0,0,1493,9,2,3,4,4,3,4,1,3,4,4,4,4,4,4,4,4
63,0,4188.589844,4125.512695,4190.641113,4192.179199,4191.666504,4181.410156,4179.358887,4193.717773,4198.333008,4199.358887,4197.820313,4172.692383,4195.256348,4192.692383,0,2043,2047,0,0,0,1493,17,2,3,4,4,3,4,1,3,4,4,4,4,4,4,4,4
64,0,4137.07666,4059.641113,4141.179199,4138.615234,4135.025391,4132.461426,4128.871582,4142.205078,4142.205078,4143.230469,4141.179199,4124.256348,4142.717773,4140.153809,259,2042,2047,0,0,0,1493,25,2,3,4,4,3,4,1,3,4,4,4,4,4,4,4,4
65,0,4171.07666,4115.692383,4168,4175.179199,4166.974121,4164.410156,4164.410156,4177.230469,4170.563965,4171.07666,4169.538574,4154.666504,4176.717773,4172.615234,312,2039,2048,0,0,0,1493,32,2,3,4,4,3,4,1,3,4,4,4,4,4,4,4,4
66,0,4159.07666,4128.820313,4159.07666,4167.281738,4162.666504,4152.922852,4156.512695,4164.205078,4161.12793,4163.179199,4160.102539,4140.102539,4162.666504,4164.717773,400,2037,2048,0,0,0,1493,40,2,3,4,4,3,4,1,3,4,4,4,4,4,4,4,4
67,0,4134.615234,4101.794922,4138.205078,4140.256348,4130,4130,4128.974121,4137.179199,4142.820313,4142.307617,4142.307617,4123.333008,4137.692383,4144.871582,455,2039,2048,0,0,0,1493,47,2,3,4,4,3,4,1,3,4,4,4,4,4,4,4,4
68,0,4178.512695,4154.410156,4178,4190.307617,4168.256348,4178,4174.922852,4178.512695,4175.94873,4173.897461,4174.410156,4158,4178.512695,4178.512695,326,2038,2048,0,0,0,1493,55,2,3,4,4,3,4,1,3,4,4,4,4,4,4,4,4
69,0,4194.12793,4162.846191,4191.563965,4204.897461,4185.410156,4187.974121,4187.974121,4190.538574,4191.563965,4191.05127,4189.512695,4177.205078,4196.179199,4195.153809,398,2040,2049,0,0,0,1493,62,2,3,4,4,3,4,1,3,4,4,4,4,4,4,4,4
70,0,4096.563965,4050.410156,4100.153809,4104.769043,4092.461426,4090.922852,4092.461426,4097.07666,4100.666504,4100.666504,4096.05127,4083.743652,4103.743652,4104.256348,93,2041,2048,0,0,0,1493,71,2,3,4,4,3,4,1,3,4,4,4,4,4,4,4,4
71,0,4085.94873,4052.615234,4091.589844,4097.230469,4085.94873,4084.922852,4084.922852,4088.512695,4078.769043,4080.820313,4078.769043,4065.436035,4090.05127,4087.487305,346,2040,2049,0,0,0,1493,79,2,3,4,4,3,4,1,3,4,4,4,4,4,4,4,4
72,0,4192.12793,4159.307617,4191.615234,4198.281738,4189.563965,4185.461426,4183.922852,4190.589844,4186.487305,4189.05127,4189.05127,4176.230469,4195.205078,4194.692383,923,2039,2048,0,0,0,1493,87,2,3,4,4,3,4,1,3,4,4,4,4,4,4,4,4
73,0,4279.05127,4224.179199,4277.512695,4287.256348,4279.05127,4275.461426,4274.436035,4278.025391,4278.025391,4278.025391,4273.410156,4258.538574,4285.717773,4281.615234,882,2040,2047,0,0,0,1493,96,2,3,4,4,3,4,1,3,4,4,4,4,4,4,4,4
74,0,4113.025391,4069.94873,4113.538574,4130.461426,4115.589844,4109.94873,4106.358887,4110.974121,4105.333008,4105.333008,4103.794922,4091.487305,4117.12793,4114.05127,358,2041,2045,0,0,0,1493,104,2,3,4,4,3,4,1,3,4,4,4,4,4,4,4,4
75,0,4227.05127,4222.94873,4230.12793,4245.512695,4232.692383,4223.461426,4216.281738,4226.025391,4218.846191,4219.358887,4220.384277,4207.05127,4228.07666,4230.12793,599,2041,2045,0,0,0,1493,112,2,3,4,4,3,4,1,3,4,4,4,4,4,4,4,4
76,0,4150.512695,4128.974121,4154.102539,4157.692383,4156.153809,4149.487305,4145.897461,4151.025391,4143.333008,4142.820313,4143.333008,4125.897461,4153.07666,4151.025391,994,2043,2043,0,0,0,1493,119,2,3,4,4,3,4,1,3,4,4,4,4,4,4,4,4
77,0,4133.07666,4071.538574,4132.563965,4128.974121,4134.102539,4130.512695,4128.974121,4133.07666,4126.922852,4125.897461,4129.487305,4116.666504,4140.256348,4135.12793,485,2044,2042,0,0,0,1493,127,2,3,4,4,3,4,1,3,4,4,4,4,4,4,4,4
78,0,4160,4105.12793,4162.05127,4159.487305,4164.615234,4160,4155.897461,4158.974121,4150.256348,4150.769043,4151.281738,4139.487305,4164.102539,4160.512695,358,2047,2041,0,0,0,1493,135,2,3,4,4,3,4,1,3,4,4,4,4,4,4,4,4
79,0,4164.102539,4121.025391,4167.692383,4163.07666,4166.153809,4160.512695,4155.897461,4160,4153.846191,4154.871582,4154.871582,4141.538574,4161.538574,4164.615234,599,2048,2041,0,0,0,1493,142,2,3,4,4,3,4,1,3,4,4,4,4,4,4,4,4
80,0,4186.666504,4148.717773,4186.666504,4183.589844,4187.692383,4182.05127,4178.461426,4185.12793,4184.615234,4184.615234,4187.692383,4168.205078,4189.230469,4193.333008,994,2050,2039,0,0,0,1493,150,2,3,4,4,3,4,1,3,4,4,4,4,4,4,4,4
81,0,4101.487305,4077.384277,4104.563965,4105.07666,4105.589844,4103.538574,4099.94873,4106.615234,4100.974121,4102.512695,4104.05127,4080.461426,4110.717773,4111.743652,485,2049,2040,0,0,0,1493,158,2,3,4,4,3,4,1,3,4,4,4,4,4,4,4,4
82,0,4109.94873,4078.666504,4112.512695,4110.974121,4110.461426,4109.436035,4106.871582,4117.12793,4113.025391,4115.589844,4116.102539,4096.102539,4119.179199,4122.769043,358,2049,2040,0,0,0,1493,166,2,3,4,4,3,4,1,3,4,4,4,4,4,4,4,4
83,0,4108.358887,4075.025391,4110.410156,4109.897461,4112.461426,4110.410156,4110.410156,4112.974121,4106.307617,4107.333008,4105.794922,4085.794922,4115.025391,4113.487305,599,2048,2041,0,0,0,1493,173,2,3,4,4,3,4,1,3,4,4,4,4,4,4,4,4
84,0,4177.410156,4159.974121,4182.538574,4184.07666,4174.333008,4182.025391,4181.512695,4179.461426,4168.179199,4168.692383,4169.205078,4151.256348,4183.05127,4177.922852,994,2048,2042,0,0,0,1493,182,2,3,4,4,3,4,1,3,4,4,4,4,4,4,4,4
85,0,4181,4143.05127,4182.025391,4185.615234,4158.436035,4182.025391,4182.025391,4185.102539,4176.384277,4177.410156,4177.410156,4162.538574,4186.641113,4182.538574,485,2046,2044,0,0,0,1493,190,2,3,4,4,3,4,1,3,4,4,4,4,4,4,4,4
86,0,4245.358887,4196.641113,4246.897461,4253.05127,4231.512695,4248.94873,4250.487305,4251,4235.615234,4238.179199,4232.538574,4219.205078,4250.487305,4246.384277,358,2046,2046,0,0,0,1493,198,2,3,4,4,3,4,1,3,4,4,4,4,4,4,4,4
87,0,4169.333008,4173.436035,4174.974121,4179.07666,4172.922852,4175.487305,4174.974121,4173.436035,4160.102539,4163.179199,4158.563965,4149.333008,4176,4177.025391,599,2045,2046,0,0,0,1493,206,2,3,4,4,3,4,1,3,4,4,4,4,4,4,4,4
88,0,4240.794922,4273.102539,4246.94873,4250.538574,4249,4249,4251.563965,4247.461426,4237.717773,4238.743652,4237.205078,4223.358887,4250.025391,4246.94873,994,2044,2047,0,0,0,1493,214,2,3,4,4,3,4,1,3,4,4,4,4,4,4,4,4
89,0,4106.410156,4090,4110.512695,4111.538574,4108.974121,4110.512695,4111.025391,4109.487305,4101.281738,4100.769043,4101.281738,4088.461426,4111.538574,4108.461426,485,2042,2045,0,0,0,1493,221,2,3,4,4,3,4,1,3,4,4,4,4,4,4,4,4
90,0,4257.461426,4219,4261.05127,4258.487305,4256.94873,4256.94873,4255.922852,4257.974121,4249.769043,4249.256348,4248.230469,4240.538574,4259.512695,4260.538574,358,2042,2044,0,0,0,1493,229,2,3,4,4,3,4,1,3,4,4,4,4,4,4,4,4
91,0,4234.794922,4232.230469,4240.436035,4240.94873,4239.922852,4237.871582,4242.487305,4235.820313,4219.922852,4216.846191,4213.769043,4205.05127,4236.846191,4230.692383,599,2043,2046,0,0,0,1493,236,2,3,4,4,3,4,1,3,4,4,4,4,4,4,4,4
92,0,4102.974121,4097.333008,4105.538574,4106.563965,4101.436035,4101.94873,4106.05127,4101.436035,4089.641113,4087.589844,4089.12793,4077.846191,4105.538574,4098.358887,994,2040,2045,0,0,0,1493,244,2,3,4,4,3,4,1,3,4,4,4,4,4,4,4,4
93,0,4133.487305,4092.974121,4136.05127,4134.512695,4131.436035,4133.487305,4136.05127,4131.94873,4123.743652,4124.769043,4125.794922,4109.384277,4134.512695,4131.436035,485,2041,2045,0,0,0,1493,252,2,3,4,4,3,4,1,3,4,4,4,4,4,4,4,4
94,0,4181.410156,4122.436035,4185.512695,4181.922852,4181.922852,4181.922852,4186.025391,4177.820313,4164.487305,4165,4162.94873,4149.102539,4178.846191,4177.307617,358,2041,2047,0,0,0,1493,260,2,3,4,4,3,4,1,3,4,4,4,4,4,4,4,4
95,0,4177.025391,4118.05127,4180.102539,4172.410156,4169.333008,4171.384277,4175.487305,4170.358887,4158.563965,4158.05127,4156,4147.794922,4176,4173.436035,599,2042,2047,0,0,0,1493,268,2,3,4,4,3,4,1,3,4,4,4,4,4,4,4,4
96,0,4203.461426,4158.333008,4205,4203.461426,4197.307617,4199.358887,4205.512695,4197.820313,4181.922852,4179.871582,4177.820313,4170.12793,4199.871582,4194.743652,994,2042,2045,0,0,0,1493,276,2,3,4,4,3,4,1,3,4,4,4,4,4,4,4,4
97,0,4189.461426,4150.487305,4186.384277,4187.410156,4185.871582,4184.333008,4191,4180.743652,4162.281738,4160.230469,4161.769043,4160.743652,4181.256348,4181.256348,485,2042,2046,0,0,0,1493,283,2,3,4,4,3,4,1,3,4,4,4,4,4,4,4,4
98,0,4097.436035,4059.487305,4093.333008,4093.846191,4094.358887,4093.333008,4099.487305,4086.666504,4064.102539,4063.07666,4066.153809,4063.589844,4090.256348,4086.666504,358,2043,2048,0,0,0,1493,291,2,3,4,4,3,4,1,3,4,4,4,4,4,4,4,4
99,0,4084.461426,4044.461426,4084.461426,4086,4080.871582,4082.410156,4090.102539,4075.230469,4053.179199,4051.641113,4053.179199,4044.974121,4078.307617,4071.12793,599,2043,2046,0,0,0,1493,299,2,3,4,4,3,4,1,3,4,4,4,4,4,4,4,4
100,0,4132.512695,4093.538574,4133.538574,4132.512695,4127.897461,4128.922852,4134.563965,4129.94873,4116.102539,4112,4114.563965,4104.820313,4133.538574,4128.922852,994,2042,2041,0,0,0,1493,307,2,3,4,4,3,4,1,3,4,4,4,4,4,4,4,4
101,0,4226.794922,4206.281738,4231.410156,4227.820313,4228.846191,4230.897461,4231.410156,4228.846191,4210.384277,4207.307617,4208.333008,4198.07666,4231.922852,4227.307617,485,2042,2041,0,0,0,1493,315,2,3,4,4,3,4,1,3,4,4,4,4,4,4,4,4
102,0,4258.384277,4236.333008,4262.487305,4255.820313,4256.333008,4255.307617,4261.974121,4252.743652,4234.281738,4235.820313,4236.333008,4228.12793,4256.333008,4254.794922,358,2043,2038,0,0,0,1493,323,2,3,4,4,3,4,1,3,4,4,4,4,4,4,4,4
103,0,4227.974121,4188.487305,4229,4220.281738,4219.769043,4214.641113,4227.974121,4219.769043,4205.410156,4204.897461,4202.846191,4194.641113,4225.410156,4219.769043,599,2043,2037,0,0,0,1493,331,2,3,4,4,3,4,1,3,4,4,4,4,4,4,4,4
104,0,4256.846191,4226.07666,4258.384277,4250.692383,4253.256348,4249.666504,4260.436035,4254.794922,4234.794922,4232.743652,4230.179199,4223,4256.846191,4248.641113,994,2044,2038,0,0,0,1493,339,2,3,4,4,3,4,1,3,4,4,4,4,4,4,4,4
105,0,4081.333008,4065.436035,4081.333008,4078.256348,4080.307617,4077.230469,4085.94873,4079.794922,4061.846191,4061.846191,4062.871582,4057.230469,4081.333008,4078.256348,485,2045,2040,0,0,0,1493,347,2,3,4,4,3,4,1,3,4,4,4,4,4,4,4,4
106,0,4225.717773,4209.307617,4226.743652,4225.717773,4227.769043,4223.666504,4234.436035,4221.102539,4200.589844,4198.538574,4196.487305,4191.871582,4224.692383,4216.487305,358,2044,2040,0,0,0,1493,354,2,3,4,4,3,4,1,3,4,4,4,4,4,4,4,4
107,0,4215.205078,4195.205078,4220.846191,4211.615234,4217.256348,4212.12793,4223.922852,4209.563965,4184.436035,4183.922852,4179.307617,4182.897461,4213.666504,4202.384277,599,2044,2042,0,0,0,1493,362,2,3,4,4,3,4,1,3,4,4,4,4,4,4,4,4
108,0,4237.256348,4214.692383,4243.410156,4232.641113,4239.307617,4233.666504,4243.922852,4234.179199,4208.538574,4212.12793,4210.07666,4211.102539,4235.205078,4227,994,2044,2043,0,0,0,1493,370,2,3,4,4,3,4,1,3,4,4,4,4,4,4,4,4
109,0,4113.897461,4068.256348,4113.384277,4103.12793,4112.358887,4106.717773,4118,4106.205078,4085.179199,4083.12793,4088.769043,4077.487305,4108.769043,4102.615234,485,2045,2045,0,0,0,1493,378,2,3,4,4,3,4,1,3,4,4,4,4,4,4,4,4
110,0,4255.102539,4177.666504,4246.897461,4233.563965,4239.205078,4237.666504,4249.461426,4241.769043,4232.025391,4224.333008,4232.538574,4222.281738,4252.538574,4247.410156,358,2044,2044,0,0,0,1493,386,2,3,4,4,3,4,1,3,4,4,4,4,4,4,4,4
111,0,4174.512695,4101.692383,4169.384277,4158.615234,4163.743652,4160.153809,4170.410156,4164.256348,4151.436035,4148.871582,4147.846191,4138.615234,4172.974121,4166.307617,599,2046,2043,0,0,0,1493,394,2,3,4,4,3,4,1,3,4,4,4,4,4,4,4,4
112,0,4232.025391,4181.256348,4232.025391,4222.281738,4228.94873,4222.794922,4227.922852,4224.333008,4209.974121,4209.974121,4206.897461,4196.12793,4227.410156,4225.358887,994,2044,2040,0,0,0,1493,402,2,3,4,4,3,4,1,3,4,4,4,4,4,4,4,4
113,0,4163.538574,4112.769043,4164.05127,4150.717773,4148.666504,4155.846191,4160.974121,4156.358887,4151.230469,4145.589844,4146.102539,4134.307617,4160.974121,4160.461426,485,2044,2040,0,0,0,1493,409,2,3,4,4,3,4,1,3,4,4,4,4,4,4,4,4
114,0,4199.974121,4148.692383,4201,4185.615234,4181,4193.820313,4202.538574,4194.846191,4186.641113,4181.512695,4181.512695,4166.641113,4197.410156,4194.333008,358,2045,2041,0,0,0,1493,417,2,3,4,4,3,4,1,3,4,4,4,4,4,4,4,4
115,0,4208.12793,4182.487305,4205.05127,4186.589844,4196.333008,4201.461426,4202.487305,4202.487305,4192.230469,4193.256348,4193.256348,4177.358887,4203,4203,599,2043,2043,0,0,0,1493,425,2,3,4,4,3,4,1,3,4,4,4,4,4,4,4,4
116,0,4276.538574,4271.922852,4273.974121,4255.512695,4275.512695,4273.461426,4270.897461,4269.871582,4258.07666,4258.589844,4259.615234,4242.179199,4271.922852,4267.820313,994,2044,2044,0,0,0,1493,433,2,3,4,4,3,4,1,3,4,4,4,4,4,4,4,4
117,0,4165.487305,4163.436035,4166.512695,4148.05127,4164.974121,4162.410156,4161.897461,4158.820313,4150.102539,4143.94873,4151.641113,4135.743652,4162.922852,4158.820313,485,2044,2044,0,0,0,1493,441,2,3,4,4,3,4,1,3,4,4,4,4,4,4,4,4
118,0,4240.07666,4265.205078,4239.05127,4221.102539,4237,4238.538574,4234.94873,4237.512695,4238.538574,4231.871582,4238.025391,4218.025391,4240.07666,4238.538574,358,2044,2045,0,0,0,1493,449,2,3,4,4,3,4,1,3,4,4,4,4,4,4,4,4
119,0,4138.05127,4176.512695,4137.025391,4120.102539,4136.512695,4139.589844,4137.025391,4134.461426,4133.436035,4132.922852,4130.871582,4104.717773,4134.974121,4129.846191,599,2044,2047,0,0,0,1493,457,2,3,4,4,3,4,1,3,4,4,4,4,4,4,4,4
120,0,4174.153809,4169.538574,4171.589844,4155.179199,4165.436035,4165.436035,4167.487305,4164.922852,4160.820313,4161.846191,4162.358887,4142.871582,4167.487305,4165.436035,994,2041,2047,0,0,0,1493,466,2,3,4,4,3,4,1,3,4,4,4,4,4,4,4,4
121,0,4163.07666,4132.307617,4156.922852,4145.12793,4155.384277,4150.769043,4154.871582,4156.410156,4143.589844,4142.563965,4140,4128.717773,4156.410156,4155.897461,485,2044,2048,0,0,0,1493,473,2,3,4,4,3,4,1,3,4,4,4,4,4,4,4,4
122,0,4096.102539,4070.974121,4089.94873,4078.153809,4088.922852,4085.333008,4086.358887,4085.846191,4070.461426,4068.922852,4063.794922,4055.589844,4086.871582,4082.256348,358,2041,2045,0,0,0,1493,480,2,3,4,4,3,4,1,3,4,4,4,4,4,4,4,4
123,0,4265.717773,4255.974121,4260.07666,4247.256348,4255.461426,4255.461426,4252.897461,4251.358887,4244.179199,4242.641113,4244.692383,4230.333008,4257.512695,4251.358887,599,2038,2046,0,0,0,1493,488,2,3,4,4,3,4,1,3,4,4,4,4,4,4,4,4
124,0,4206.589844,4225.563965,4200.94873,4191.205078,4201.974121,4201.974121,4199.922852,4197.871582,4187.615234,4187.102539,4188.641113,4167.102539,4201.461426,4191.205078,994,2041,2044,0,0,0,1493,496,2,3,4,4,3,4,1,3,4,4,4,4,4,4,4,4
125,0,4266.641113,4284.589844,4259.461426,4249.717773,4260.487305,4259.461426,4257.922852,4257.410156,4252.281738,4254.333008,4250.743652,4233.820313,4262.538574,4254.846191,485,2039,2043,0,0,0,1493,504,2,3,4,4,3,4,1,3,4,4,4,4,4,4,4,4
126,0,4143.07666,4128.205078,4136.922852,4127.692383,4137.436035,4136.410156,4133.846191,4129.743652,4126.666504,4123.07666,4121.538574,4108.717773,4135.897461,4130.256348,358,2038,2043,0,0,0,1493,512,2,3,4,4,3,4,1,3,4,4,4,4,4,4,4,4
127,0,4247.512695,4224.436035,4243.922852,4230.589844,4245.461426,4242.897461,4240.846191,4235.205078,4218.281738,4214.692383,4215.205078,4206.487305,4237.769043,4228.025391,599,2040,2043,0,0,0,1493,520,2,3,4,4,3,4,1,3,4,4,4,4,4,4,4,4
128,0,4199.615234,4201.153809,4198.07666,4175.512695,4195.512695,4191.410156,4190.384277,4190.384277,4173.974121,4177.05127,4176.538574,4164.743652,4195,4183.205078,994,2039,2042,0,0,0,1493,528,2,3,4,4,3,4,1,3,4,4,4,4,4,4,4,4
0,0,4241,4255.871582,4241,4223.05127,4238.436035,4237.410156,4235.358887,4230.743652,4218.94873,4220.487305,4219.461426,4203.563965,4238.436035,4224.07666,259,2042,2041,0,0,0,1493,536,2,3,4,4,3,4,1,3,4,4,4,4,4,4,4,4
1,0,4212.589844,4212.589844,4206.436035,4193.102539,4209.512695,4206.94873,4202.846191,4198.743652,4187.461426,4187.974121,4188.487305,4180.281738,4206.436035,4197.205078,312,2044,2042,0,0,0,1493,544,2,3,4,4,3,4,1,3,4,4,4,4,4,4,4,4
2,0,4242.230469,4243.256348,4233,4217.102539,4240.179199,4230.94873,4230.436035,4231.461426,4224.794922,4229.410156,4225.307617,4209.922852,4237.615234,4231.461426,400,2043,2039,0,0,0,1493,551,2,3,4,4,3,4,1,3,4,4,4,4,4,4,4,4
3,0,4206.230469,4222.12793,4199.05127,4183.666504,4195.461426,4195.974121,4195.974121,4196.487305,4193.922852,4196.487305,4194.436035,4169.820313,4200.07666,4195.461426,453,2045,2039,0,0,0,1493,559,2,3,4,4,3,4,1,3,4,4,4,4,4,4,4,4
4,0,4217.666504,4219.717773,4209.461426,4191.512695,4195.102539,4206.897461,4206.384277,4203.820313,4201.256348,4200.230469,4201.769043,4187.922852,4209.974121,4206.384277,347,2045,2039,0,0,0,1493,567,2,3,4,4,3,4,1,3,4,4,4,4,4,4,4,4
5,0,4265,4229.615234,4261.410156,4240.897461,4254.743652,4257.820313,4259.358887,4253.717773,4242.436035,4243.461426,4237.307617,4227.05127,4260.384277,4251.666504,398,2046,2039,0,0,0,1493,575,2,3,4,4,3,4,1,3,4,4,4,4,4,4,4,4
6,0,4090.102539,4050.615234,4089.07666,4070.615234,4086,4082.410156,4081.897461,4080.871582,4070.102539,4073.692383,4068.05127,4052.153809,4087.025391,4078.307617,126,2047,2038,0,0,0,1493,583,2,3,4,4,3,4,1,3,4,4,4,4,4,4,4,4
7,0,4276.12793,4297.666504,4274.07666,4263.307617,4268.436035,4272.025391,4267.922852,4269.461426,4262.794922,4263.307617,4261.769043,4243.307617,4272.025391,4264.333008,344,2048,2037,0,0,0,1493,591,2,3,4,4,3,4,1,3,4,4,4,4,4,4,4,4
8,0,4164.615234,4212.820313,4163.589844,4155.897461,4161.025391,4164.615234,4160,4160.512695,4153.846191,4152.307617,4152.307617,4132.307617,4158.461426,4154.358887,920,2047,2038,0,0,0,1493,599,2,3,4,4,3,4,1,3,4,4,4,4,4,4,4,4
9,0,4245.769043,4231.922852,4241.666504,4228.846191,4238.07666,4237.563965,4233.461426,4240.641113,4241.153809,4240.641113,4244.230469,4221.666504,4242.692383,4238.07666,897,2046,2039,0,0,0,1493,607,2,3,4,4,3,4,1,3,4,4,4,4,4,4,4,4
10,0,4256.07666,4226.846191,4253,4239.666504,4250.94873,4251.974121,4247.358887,4254.025391,4250.94873,4250.436035,4251.974121,4228.897461,4258.12793,4245.820313,358,2046,2040,0,0,0,1493,615,2,3,4,4,3,4,1,3,4,4,4,4,4,4,4,4
11,0,4242.487305,4275.820313,4243,4233.769043,4245.563965,4244.538574,4239.410156,4243,4237.871582,4237.871582,4238.384277,4218.384277,4245.05127,4237.358887,600,2047,2042,0,0,0,1493,622,2,3,4,4,3,4,1,3,4,4,4,4,4,4,4,4
12,0,4196.538574,4250.384277,4198.07666,4188.333008,4200.12793,4196.538574,4192.94873,4197.05127,4198.07666,4198.589844,4199.102539,4174.487305,4199.102539,4194.487305,992,2045,2043,0,0,0,1493,630,2,3,4,4,3,4,1,3,4,4,4,4,4,4,4,4
13,0,4129.025391,4154.153809,4130.563965,4115.179199,4130.563965,4127.487305,4124.922852,4126.974121,4125.436035,4128.512695,4126.974121,4100.820313,4132.102539,4120.307617,482,2045,2044,0,0,0,1493,638,2,3,4,4,3,4,1,3,4,4,4,4,4,4,4,4
14,0,4198.641113,4218.12793,4196.07666,4180.692383,4194.025391,4194.025391,4189.410156,4195.05127,4195.563965,4198.641113,4199.666504,4177.102539,4202.230469,4194.538574,358,2044,2043,0,0,0,1493,646,2,3,4,4,3,4,1,3,4,4,4,4,4,4,4,4
15,0,4146.615234,4162,4142.512695,4130.717773,4139.94873,4143.025391,4139.94873,4141.487305,4143.025391,4143.025391,4145.589844,4118.922852,4147.641113,4142.512695,600,2043,2044,0,0,0,1493,654,2,3,4,4,3,4,1,3,4,4,4,4,4,4,4,4
16,0,4232.743652,4237.358887,4228.12793,4211.205078,4223.512695,4223,4220.436035,4221.974121,4228.641113,4229.153809,4232.743652,4205.05127,4230.179199,4224.538574,0,2042,2044,0,0,0,1493,662,2,3,4,4,3,4,1,3,4,4,4,4,4,4,4,4
17,0,4189.333008,4219.07666,4183.692383,4164.717773,4180.615234,4177.538574,4174.461426,4184.205078,4198.05127,4199.589844,4203.692383,4169.846191,4192.410156,4186.769043,0,2040,2046,0,0,0,1493,670,2,3,4,4,3,4,1,3,4,4,4,4,4,4,4,4
18,0,4232.230469,4269.666504,4228.12793,4212.743652,4226.589844,4227.102539,4226.07666,4232.230469,4245.05127,4245.05127,4245.563965,4208.12793,4236.333008,4230.692383,0,2041,2046,0,0,0,1493,678,2,3,4,4,3,4,1,3,4,4,4,4,4,4,4,4
19,0,4218.230469,4206.436035,4214.12793,4194.641113,4209.512695,4209.512695,4207.974121,4214.641113,4227.461426,4226.436035,4225.410156,4199.256348,4220.794922,4215.666504,0,2041,2045,0,0,0,1493,685,2,3,4,4,3,4,1,3,4,4,4,4,4,4,4,4
20,0,4204.07666,4182.538574,4200.487305,4184.07666,4200.487305,4194.846191,4194.846191,4202.538574,4201.512695,4202.538574,4204.07666,4182.538574,4210.743652,4197.922852,0,2040,2048,0,0,0,1493,693,2,3,4,4,3,4,1,3,4,4,4,4,4,4,4,4
21,0,4134.563965,4135.07666,4130.461426,4119.692383,4125.333008,4128.922852,4129.436035,4134.05127,4126.358887,4126.871582,4132,4108.922852,4139.179199,4126.358887,0,2040,2049,0,0,0,1493,702,2,3,4,4,3,4,1,3,4,4,4,4,4,4,4,4
22,0,4127.589844,4118.358887,4124.512695,4106.05127,4110.666504,4122.461426,4122.974121,4124.512695,4119.897461,4118.358887,4122.974121,4104.512695,4128.615234,4117.846191,0,2042,2047,0,0,0,1493,710,2,3,4,4,3,4,1,3,4,4,4,4,4,4,4,4
23,0,4220.025391,4213.358887,4221.05127,4196.436035,4211.820313,4215.410156,4219.512695,4214.384277,4204.641113,4205.153809,4208.743652,4189.256348,4221.05127,4204.641113,0,2043,2047,0,0,0,1493,718,2,3,4,4,3,4,1,3,4,4,4,4,4,4,4,4
24,0,4276.179199,4272.589844,4273.615234,4256.179199,4266.94873,4266.436035,4269.512695,4269,4265.922852,4266.94873,4272.589844,4250.025391,4277.717773,4264.897461,0,2042,2047,0,0,0,1493,725,2,3,4,4,3,4,1,3,4,4,4,4,4,4,4,4
25,0,4224.12793,4199.512695,4217.461426,4208.230469,4213.358887,4216.436035,4215.922852,4215.922852,4213.358887,4212.333008,4212.846191,4190.794922,4220.538574,4208.743652,0,2043,2047,0,0,0,1493,733,2,3,4,4,3,4,1,3,4,4,4,4,4,4,4,4
26,0,4186.07666,4151.205078,4180.94873,4170.179199,4178.897461,4178.897461,4179.410156,4173.769043,4164.538574,4161.974121,4164.025391,4147.615234,4180.94873,4167.102539,0,2042,2043,0,0,0,1493,741,2,3,4,4,3,4,1,3,4,4,4,4,4,4,4,4
27,0,4260.12793,4240.12793,4254.487305,4244.230469,4249.871582,4247.307617,4251.410156,4247.307617,4245.256348,4244.230469,4247.820313,4232.94873,4261.666504,4247.820313,0,2042,2040,0,0,0,1493,749,2,3,4,4,3,4,1,3,4,4,4,4,4,4,4,4
28,0,4108.05127,4097.281738,4102.410156,4095.743652,4098.820313,4097.281738,4101.384277,4099.846191,4092.666504,4095.743652,4093.179199,4074.205078,4106.512695,4093.692383,0,2042,2038,0,0,0,1493,757,2,3,4,4,3,4,1,3,4,4,4,4,4,4,4,4
29,0,4236.743652,4200.846191,4229.563965,4215.717773,4223.410156,4220.846191,4221.358887,4227,4218.794922,4222.384277,4224.436035,4202.897461,4231.102539,4224.94873,0,2041,2037,0,0,0,1493,764,2,3,4,4,3,4,1,3,4,4,4,4,4,4,4,4
30,0,4146.769043,4118.563965,4139.07666,4126.769043,4135.487305,4132.410156,4130.358887,4138.05127,4143.692383,4141.641113,4145.230469,4120.102539,4147.281738,4142.153809,0,2042,2037,0,0,0,1493,772,2,3,4,4,3,4,1,3,4,4,4,4,4,4,4,4
31,0,4162.666504,4168.307617,4154.974121,4150.871582,4156.512695,4153.436035,4153.94873,4160.102539,4170.358887,4167.281738,4166.769043,4139.589844,4166.256348,4161.641113,0,2043,2038,0,0,0,1493,780,2,3,4,4,3,4,1,3,4,4,4,4,4,4,4,4
32,0,4214.230469,4222.436035,4204.487305,4196.794922,4201.922852,4201.922852,4205,4212.692383,4217.820313,4220.384277,4220.384277,4193.205078,4215.256348,4214.230469,0,2043,2037,0,0,0,1493,788,2,3,4,4,3,4,1,3,4,4,4,4,4,4,4,4
33,0,4106.666504,4123.589844,4101.025391,4088.205078,4094.871582,4098.461426,4100,4101.538574,4101.538574,4105.12793,4105.641113,4074.871582,4105.641113,4101.538574,0,2044,2040,0,0,0,1493,796,2,3,4,4,3,4,1,3,4,4,4,4,4,4,4,4
34,0,4221.205078,4263.256348,4216.07666,4205.307617,4211.974121,4214.025391,4212.487305,4216.07666,4226.846191,4226.846191,4229.922852,4197.615234,4224.281738,4219.666504,0,2044,2040,0,0,0,1493,804,2,3,4,4,3,4,1,3,4,4,4,4,4,4,4,4
35,0,4250.641113,4282.94873,4245.512695,4240.897461,4242.94873,4245,4242.94873,4254.743652,4271.666504,4271.153809,4273.717773,4235.769043,4262.94873,4256.794922,0,2044,2039,0,0,0,1493,811,2,3,4,4,3,4,1,3,4,4,4,4,4,4,4,4
36,0,4172.153809,4168.563965,4170.102539,4164.974121,4166.512695,4168.05127,4164.974121,4177.794922,4192.153809,4194.717773,4196.256348,4157.794922,4184.461426,4179.333008,0,2045,2039,0,0,0,1493,819,2,3,4,4,3,4,1,3,4,4,4,4,4,4,4,4
37,0,4195.358887,4184.589844,4190.743652,4177.922852,4186.641113,4185.615234,4181.512695,4195.871582,4212.281738,4215.871582,4218.94873,4183.563965,4199.974121,4202.025391,0,2044,2037,0,0,0,1493,827,2,3,4,4,3,4,1,3,4,4,4,4,4,4,4,4
38,0,4207.666504,4210.743652,4203.05127,4195.871582,4198.94873,4203.05127,4198.94873,4211.256348,4219.461426,4219.461426,4223.05127,4186.12793,4211.256348,4209.717773,0,2045,2037,0,0,0,1493,835,2,3,4,4,3,4,1,3,4,4,4,4,4,4,4,4
39,0,4094.05127,4088.410156,4092.512695,4088.922852,4082.256348,4091.487305,4087.384277,4099.692383,4108.410156,4104.307617,4108.922852,4077.12793,4103.794922,4097.641113,0,2044,2040,0,0,0,1493,843,2,3,4,4,3,4,1,3,4,4,4,4,4,4,4,4
40,0,4152.615234,4139.281738,4152.102539,4142.871582,4142.358887,4146.974121,4146.461426,4156.717773,4167.487305,4163.897461,4167.487305,4137.230469,4163.384277,4158.256348,0,2043,2040,0,0,0,1493,851,2,3,4,4,3,4,1,3,4,4,4,4,4,4,4,4
41,0,4210.12793,4211.666504,4209.615234,4197.820313,4206.538574,4206.025391,4207.563965,4209.615234,4211.666504,4213.205078,4216.794922,4185.512695,4214.230469,4212.692383,0,2043,2043,0,0,0,1493,859,2,3,4,4,3,4,1,3,4,4,4,4,4,4,4,4
42,0,4260.07666,4273.922852,4259.563965,4252.384277,4255.461426,4258.025391,4256.487305,4263.153809,4267.256348,4270.333008,4274.436035,4245.717773,4266.743652,4266.230469,0,2043,2042,0,0,0,1493,866,2,3,4,4,3,4,1,3,4,4,4,4,4,4,4,4
43,0,4101.897461,4129.589844,4106.512695,4102.922852,4104.974121,4107.025391,4101.897461,4115.743652,4124.974121,4121.897461,4123.94873,4091.12793,4116.769043,4110.102539,0,2041,2044,0,0,0,1493,874,2,3,4,4,3,4,1,3,4,4,4,4,4,4,4,4
44,0,4120.563965,4174.410156,4123.12793,4115.436035,4123.12793,4121.07666,4115.94873,4130.307617,4144.153809,4140.05127,4145.179199,4111.333008,4134.922852,4131.333008,0,2040,2046,0,0,0,1493,882,2,3,4,4,3,4,1,3,4,4,4,4,4,4,4,4
45,0,4173.641113,4244.410156,4171.07666,4163.897461,4170.563965,4174.153809,4165.94873,4178.256348,4196.205078,4195.692383,4199.794922,4163.897461,4186.461426,4186.974121,0,2039,2046,0,0,0,1493,890,2,3,4,4,3,4,1,3,4,4,4,4,4,4,4,4
46,0,4254.538574,4301.717773,4255.563965,4249.922852,4252.487305,4261.205078,4249.922852,4260.692383,4276.589844,4275.563965,4277.615234,4239.666504,4266.846191,4263.769043,0,2039,2046,0,0,0,1493,898,2,3,4,4,3,4,1,3,4,4,4,4,4,4,4,4
47,0,4190.692383,4204.025391,4192.743652,4181.461426,4185.563965,4188.641113,4179.410156,4195.820313,4213.256348,4210.179199,4217.358887,4180.94873,4200.436035,4201.461426,0,2037,2045,0,0,0,1493,906,2,3,4,4,3,4,1,3,4,4,4,4,4,4,4,4
48,0,4155.641113,4178.205078,4155.12793,4148.461426,4152.05127,4153.07666,4147.436035,4160.769043,4173.07666,4169.487305,4175.641113,4138.205078,4162.820313,4164.871582,0,2039,2047,0,0,0,1493,914,2,3,4,4,3,4,1,3,4,4,4,4,4,4,4,4
49,0,4150.563965,4183.897461,4153.641113,4148.512695,4149.538574,4151.589844,4144.922852,4157.230469,4165.436035,4163.897461,4169.538574,4136.717773,4159.281738,4160.307617,0,2041,2046,0,0,0,1493,922,2,3,4,4,3,4,1,3,4,4,4,4,4,4,4,4
50,0,4109.538574,4132.615234,4117.743652,4105.436035,4105.436035,4110.05127,4104.410156,4117.743652,4130.05127,4129.025391,4134.666504,4103.897461,4124.922852,4124.410156,0,2042,2047,0,0,0,1493,930,2,3,4,4,3,4,1,3,4,4,4,4,4,4,4,4
51,0,4259.461426,4286.641113,4264.07666,4257.410156,4248.179199,4262.025391,4260.487305,4266.641113,4274.846191,4276.384277,4276.384277,4244.589844,4273.307617,4273.820313,0,2042,2045,0,0,0,1493,937,2,3,4,4,3,4,1,3,4,4,4,4,4,4,4,4
52,0,4124.563965,4179.436035,4124.563965,4126.102539,4103.025391,4125.07666,4122,4131.230469,4146.102539,4148.666504,4149.179199,4117.897461,4137.897461,4143.538574,0,2042,2042,0,0,0,1493,945,2,3,4,4,3,4,1,3,4,4,4,4,4,4,4,4
53,0,4126.974121,4194.153809,4133.12793,4132.615234,4110.563965,4131.07666,4127.487305,4139.281738,4156.717773,4156.717773,4159.281738,4121.846191,4144.410156,4146.974121,0,2041,2042,0,0,0,1493,953,2,3,4,4,3,4,1,3,4,4,4,4,4,4,4,4
54,0,4259.974121,4301,4266.12793,4261.512695,4249.205078,4262.538574,4261.512695,4271.769043,4285.102539,4280.487305,4287.666504,4251.769043,4275.358887,4278.94873,0,2040,2042,0,0,0,1493,961,2,3,4,4,3,4,1,3,4,4,4,4,4,4,4,4
55,0,4196.12793,4223.820313,4196.12793,4192.538574,4184.333008,4193.563965,4192.025391,4204.333008,4223.820313,4220.230469,4227.922852,4191.512695,4210.487305,4217.666504,0,2042,2040,0,0,0,1493,969,2,3,4,4,3,4,1,3,4,4,4,4,4,4,4,4
56,0,4136.615234,4166.358887,4138.153809,4134.563965,4129.436035,4135.07666,4131.487305,4146.358887,4165.333008,4165.846191,4169.94873,4125.846191,4149.94873,4156.102539,0,2042,2040,0,0,0,1493,977,2,3,4,4,3,4,1,3,4,4,4,4,4,4,4,4
57,0,4258.12793,4271.974121,4260.692383,4252.487305,4250.94873,4254.538574,4249.410156,4267.358887,4286.333008,4284.794922,4291.974121,4253,4270.436035,4278.12793,0,2042,2040,0,0,0,1493,985,2,3,4,4,3,4,1,3,4,4,4,4,4,4,4,4
58,0,4249.922852,4268.384277,4255.05127,4246.333008,4250.436035,4252.487305,4253,4262.230469,4277.615234,4273,4278.12793,4246.333008,4265.307617,4269.410156,0,2043,2041,0,0,0,1493,993,2,3,4,4,3,4,1,3,4,4,4,4,4,4,4,4
59,0,4181.410156,4212.179199,4187.563965,4178.846191,4186.025391,4186.538574,4189.615234,4193.717773,4208.589844,4203.974121,4207.05127,4174.230469,4196.794922,4199.871582,0,2047,2042,0,0,0,1494,0,2,3,4,4,3,4,1,3,4,4,4,4,4,4,4,4
60,0,4222.487305,4248.12793,4226.589844,4217.871582,4223.512695,4226.589844,4221.974121,4236.333008,4250.179199,4247.615234,4253.256348,4217.871582,4240.94873,4242.487305,0,2046,2042,0,0,0,1494,9,2,3,4,4,3,4,1,3,4,4,4,4,4,4,4,4
61,0,4118.820313,4149.07666,4126.512695,4120.871582,4124.461426,4127.538574,4122.922852,4134.717773,4139.333008,4137.281738,4143.436035,4108.563965,4139.333008,4135.230469,0,2046,2039,0,0,0,1494,17,2,3,4,4,3,4,1,3,4,4,4,4,4,4,4,4
62,0,4256.436035,4278.487305,4262.07666,4255.922852,4258.487305,4259.512695,4260.025391,4267.205078,4276.436035,4275.410156,4280.538574,4251.307617,4274.384277,4274.384277,0,2045,2038,0,0,0,1494,24,2,3,4,4,3,4,1,3,4,4,4,4,4,4,4,4
63,0,4094.410156,4109.281738,4097.487305,4093.384277,4096.974121,4096.974121,4100.563965,4106.717773,4116.461426,4113.897461,4118,4087.743652,4111.333008,4112.871582,0,2044,2037,0,0,0,1494,33,2,3,4,4,3,4,1,3,4,4,4,4,4,4,4,4
64,0,4096.769043,4145.487305,4106.512695,4102.410156,4105.487305,4107.538574,4106.512695,4115.230469,4116.256348,4114.205078,4118.820313,4087.025391,4114.205078,4111.641113,259,2045,2037,0,0,0,1494,41,2,3,4,4,3,4,1,3,4,4,4,4,4,4,4,4
65,0,4101.333008,4184.922852,4113.12793,4109.025391,4109.538574,4114.666504,4109.538574,4119.281738,4124.410156,4122.871582,4129.538574,4096.205078,4120.307617,4116.717773,314,2045,2038,0,0,0,1494,49,2,3,4,4,3,4,1,3,4,4,4,4,4,4,4,4
66,0,4156.358887,4256.871582,4163.538574,4169.179199,4171.230469,4172.769043,4169.692383,4170.205078,4182.512695,4176.871582,4182,4143.025391,4173.281738,4171.743652,400,2044,2040,0,0,0,1494,57,2,3,4,4,3,4,1,3,4,4,4,4,4,4,4,4
67,0,4194.94873,4287.256348,4198.538574,4210.846191,4205.205078,4206.230469,4203.153809,4208.794922,4227.256348,4222.12793,4228.794922,4190.333008,4212.384277,4216.487305,462,2044,2040,0,0,0,1494,64,2,3,4,4,3,4,1,3,4,4,4,4,4,4,4,4
68,0,4179.307617,4239.307617,4188.025391,4194.179199,4179.307617,4188.538574,4186.487305,4197.769043,4209.563965,4208.538574,4213.666504,4176.743652,4201.358887,4201.871582,349,2044,2042,0,0,0,1494,72,2,3,4,4,3,4,1,3,4,4,4,4,4,4,4,4
69,0,4076.256348,4117.281738,4084.974121,4087.025391,4076.769043,4088.05127,4085.487305,4091.12793,4094.205078,4094.717773,4097.794922,4062.410156,4094.205078,4093.692383,398,2045,2045,0,0,0,1494,80,2,3,4,4,3,4,1,3,4,4,4,4,4,4,4,4
70,0,4165.897461,4227.436035,4167.436035,4177.179199,4171.538574,4178.717773,4173.589844,4180.256348,4191.538574,4191.538574,4199.230469,4161.281738,4182.820313,4190.512695,103,2044,2047,0,0,0,1494,88,2,3,4,4,3,4,1,3,4,4,4,4,4,4,4,4
71,0,4110.307617,4188.769043,4114.922852,4126.205078,4120.563965,4125.692383,4124.153809,4127.230469,4136.974121,4134.922852,4142.102539,4103.12793,4131.846191,4130.820313,342,2044,2045,0,0,0,1494,96,2,3,4,4,3,4,1,3,4,4,4,4,4,4,4,4
72,0,4101.436035,4144,4108.615234,4111.179199,4104.512695,4109.641113,4109.641113,4111.179199,4114.769043,4112.717773,4117.846191,4088.615234,4118.358887,4111.692383,921,2044,2044,0,0,0,1494,103,2,3,4,4,3,4,1,3,4,4,4,4,4,4,4,4
73,0,4176.384277,4189.717773,4182.025391,4187.666504,4181.512695,4187.666504,4182.025391,4185.102539,4189.717773,4188.692383,4190.230469,4164.07666,4191.769043,4188.692383,886,2042,2043,0,0,0,1494,111,2,3,4,4,3,4,1,3,4,4,4,4,4,4,4,4
74,0,4093.12793,4120.820313,4104.410156,4112.102539,4109.025391,4116.205078,4104.922852,4106.974121,4104.922852,4102.871582,4106.974121,4077.743652,4112.102539,4107.487305,358,2041,2043,0,0,0,1494,119,2,3,4,4,3,4,1,3,4,4,4,4,4,4,4,4
75,0,4140.358887,4183.94873,4152.153809,4150.615234,4152.666504,4154.717773,4146.512695,4150.102539,4151.12793,4147.025391,4155.743652,4127.538574,4155.230469,4152.666504,596,2041,2044,0,0,0,1494,127,2,3,4,4,3,4,1,3,4,4,4,4,4,4,4,4
76,0,4152.461426,4209.384277,4161.179199,4160.153809,4166.820313,4163.230469,4160.153809,4160.153809,4163.743652,4163.230469,4163.230469,4135.538574,4161.692383,4161.179199,990,2041,2045,0,0,0,1494,135,2,3,4,4,3,4,1,3,4,4,4,4,4,4,4,4
77,0,4226.794922,4295,4236.538574,4241.153809,4239.615234,4244.743652,4239.102539,4237.563965,4237.563965,4241.153809,4237.563965,4215,4239.102539,4238.07666,476,2042,2047,0,0,0,1494,142,2,3,4,4,3,4,1,3,4,4,4,4,4,4,4,4
78,0,4264.281738,4337.615234,4274.538574,4277.615234,4264.281738,4281.717773,4275.563965,4273.512695,4272.487305,4271.974121,4276.589844,4251.974121,4278.12793,4273,358,2042,2047,0,0,0,1494,150,2,3,4,4,3,4,1,3,4,4,4,4,4,4,4,4
79,0,4233,4300.179199,4239.666504,4243.256348,4229.410156,4243.769043,4238.12793,4234.025391,4236.07666,4233.512695,4241.717773,4208.897461,4239.153809,4233.512695,596,2044,2046,0,0,0,1494,158,2,3,4,4,3,4,1,3,4,4,4,4,4,4,4,4
80,0,4268.12793,4318.897461,4271.205078,4273.256348,4270.179199,4274.281738,4267.102539,4267.102539,4276.333008,4276.846191,4282.487305,4250.179199,4275.307617,4274.794922,990,2043,2045,0,0,0,1494,167,2,3,4,4,3,4,1,3,4,4,4,4,4,4,4,4
81,0,4251.256348,4306.641113,4259.461426,4261.512695,4266.641113,4265.102539,4265.615234,4257.410156,4257.922852,4258.436035,4259.461426,4232.281738,4266.641113,4258.94873,476,2043,2041,0,0,0,1494,175,2,3,4,4,3,4,1,3,4,4,4,4,4,4,4,4
82,0,4217.205078,4269.512695,4230.538574,4226.436035,4231.563965,4232.589844,4234.12793,4222.846191,4214.12793,4215.666504,4217.717773,4197.205078,4229.512695,4221.307617,358,2045,2042,0,0,0,1494,183,2,3,4,4,3,4,1,3,4,4,4,4,4,4,4,4
83,0,4092.922852,4108.307617,4103.692383,4092.922852,4100.615234,4103.692383,4098.563965,4097.025391,4090.358887,4091.384277,4096.512695,4076,4101.12793,4098.05127,596,2045,2040,0,0,0,1494,191,2,3,4,4,3,4,1,3,4,4,4,4,4,4,4,4
84,0,4111.436035,4102.205078,4120.666504,4112.461426,4125.794922,4122.205078,4117.07666,4116.05127,4111.436035,4109.384277,4116.05127,4087.333008,4122.205078,4118.615234,990,2045,2040,0,0,0,1494,199,2,3,4,4,3,4,1,3,4,4,4,4,4,4,4,4
85,0,4215.563965,4215.05127,4222.743652,4215.563965,4221.205078,4223.769043,4218.12793,4218.12793,4221.717773,4220.692383,4227.358887,4195.563965,4227.871582,4228.384277,476,2045,2041,0,0,0,1494,206,2,3,4,4,3,4,1,3,4,4,4,4,4,4,4,4
86,0,4217.974121,4231.820313,4227.717773,4222.589844,4214.384277,4231.307617,4225.153809,4225.153809,4226.692383,4229.769043,4229.769043,4196.436035,4230.281738,4230.794922,358,2047,2038,0,0,0,1494,214,2,3,4,4,3,4,1,3,4,4,4,4,4,4,4,4
87,0,4175.487305,4176,4185.743652,4178.563965,4178.05127,4188.307617,4184.717773,4185.743652,4188.820313,4188.820313,4193.94873,4157.025391,4188.820313,4191.897461,596,2047,2038,0,0,0,1494,221,2,3,4,4,3,4,1,3,4,4,4,4,4,4,4,4
88,0,4136.563965,4120.153809,4142.717773,4134.512695,4144.256348,4143.743652,4139.12793,4147.333008,4157.07666,4154,4163.230469,4126.307617,4154,4157.589844,990,2048,2037,0,0,0,1494,229,2,3,4,4,3,4,1,3,4,4,4,4,4,4,4,4
89,0,4146.820313,4136.05127,4157.589844,4151.436035,4158.615234,4162.717773,4155.538574,4159.641113,4159.641113,4159.641113,4161.179199,4132.974121,4162.205078,4160.666504,476,2047,2037,0,0,0,1494,237,2,3,4,4,3,4,1,3,4,4,4,4,4,4,4,4
90,0,4167.846191,4150.922852,4176.563965,4168.871582,4175.025391,4178.615234,4178.102539,4175.538574,4171.436035,4172.461426,4176.563965,4155.538574,4178.615234,4179.641113,358,2046,2038,0,0,0,1494,246,2,3,4,4,3,4,1,3,4,4,4,4,4,4,4,4
91,0,4086.871582,4072.512695,4092,4082.769043,4096.102539,4093.538574,4094.563965,4093.025391,4087.897461,4085.333008,4093.025391,4067.384277,4097.641113,4097.641113,596,2044,2037,0,0,0,1494,254,2,3,4,4,3,4,1,3,4,4,4,4,4,4,4,4
92,0,4152.871582,4161.07666,4161.589844,4154.410156,4163.641113,4164.153809,4156.461426,4161.589844,4156.974121,4156.461426,4160.563965,4131.846191,4164.153809,4163.641113,990,2044,2038,0,0,0,1494,261,2,3,4,4,3,4,1,3,4,4,4,4,4,4,4,4
93,0,4141.94873,4151.692383,4151.692383,4149.641113,4145.025391,4154.256348,4146.563965,4151.179199,4158.871582,4157.846191,4162.461426,4131.692383,4156.820313,4159.384277,476,2044,2039,0,0,0,1494,269,2,3,4,4,3,4,1,3,4,4,4,4,4,4,4,4
94,0,4185,4171.666504,4191.666504,4191.153809,4181.922852,4194.230469,4192.692383,4189.615234,4200.897461,4197.307617,4203.974121,4165.512695,4198.333008,4201.410156,358,2045,2043,0,0,0,1494,276,2,3,4,4,3,4,1,3,4,4,4,4,4,4,4,4
95,0,4190.230469,4159.461426,4191.769043,4187.153809,4182.025391,4190.230469,4186.12793,4192.281738,4207.153809,4204.07666,4215.358887,4173.307617,4202.025391,4210.743652,596,2045,2046,0,0,0,1494,283,2,3,4,4,3,4,1,3,4,4,4,4,4,4,4,4
96,0,4143.743652,4149.384277,4144.769043,4139.641113,4141.692383,4143.743652,4135.538574,4148.358887,4168.871582,4164.256348,4175.025391,4131.436035,4156.563965,4168.358887,990,2045,2045,0,0,0,1494,292,2,3,4,4,3,4,1,3,4,4,4,4,4,4,4,4
97,0,4167.743652,4246.205078,4170.307617,4164.666504,4169.281738,4168.256348,4160.05127,4169.794922,4188.256348,4185.692383,4191.333008,4152.871582,4178,4190.307617,476,2044,2046,0,0,0,1494,300,2,3,4,4,3,4,1,3,4,4,4,4,4,4,4,4
98,0,4231.410156,4340.12793,4230.384277,4221.153809,4227.307617,4227.820313,4217.563965,4231.410156,4252.436035,4252.94873,4258.589844,4218.07666,4242.692383,4257.05127,358,2044,2047,0,0,0,1494,308,2,3,4,4,3,4,1,3,4,4,4,4,4,4,4,4
99,0,4213.461426,4298.589844,4208.846191,4203.205078,4209.871582,4209.871582,4201.153809,4215.512695,4239.615234,4236.538574,4245.769043,4193.461426,4227.820313,4244.230469,596,2044,2044,0,0,0,1494,316,2,3,4,4,3,4,1,3,4,4,4,4,4,4,4,4
100,0,4184.666504,4258,4175.436035,4171.333008,4173.384277,4173.384277,4167.230469,4182.102539,4210.820313,4208.256348,4219.538574,4169.281738,4193.897461,4220.05127,990,2044,2043,0,0,0,1494,324,2,3,4,4,3,4,1,3,4,4,4,4,4,4,4,4
101,0,4143.230469,4249.384277,4132.461426,4124.769043,4128.358887,4129.384277,4122.205078,4136.05127,4163.743652,4163.230469,4171.436035,4123.743652,4145.794922,4175.538574,476,2042,2042,0,0,0,1494,331,2,3,4,4,3,4,1,3,4,4,4,4,4,4,4,4
102,0,4162.666504,4272.410156,4154.974121,4146.256348,4152.922852,4154.974121,4141.641113,4157.538574,4177.538574,4174.461426,4185.230469,4134.974121,4163.179199,4192.922852,358,2042,2043,0,0,0,1494,339,2,3,4,4,3,4,1,3,4,4,4,4,4,4,4,4
103,0,4134.205078,4210.615234,4126.512695,4115.743652,4123.436035,4126,4112.153809,4135.743652,4161.384277,4157.794922,4172.153809,4119.333008,4139.846191,4176.769043,596,2042,2043,0,0,0,1494,347,2,3,4,4,3,4,1,3,4,4,4,4,4,4,4,4
104,0,4298.641113,4364.281738,4289.922852,4278.12793,4288.384277,4287.871582,4281.717773,4301.717773,4332.487305,4329.922852,4338.12793,4280.179199,4305.820313,4344.794922,990,2044,2044,0,0,0,1494,355,2,3,4,4,3,4,1,3,4,4,4,4,4,4,4,4
105,0,4227.205078,4296.94873,4216.436035,4206.692383,4214.897461,4212.846191,4206.179199,4222.589844,4253.358887,4252.333008,4261.05127,4207.717773,4230.281738,4269.769043,476,2043,2046,0,0,0,1494,363,2,3,4,4,3,4,1,3,4,4,4,4,4,4,4,4
106,0,4226.641113,4298.436035,4217.922852,4214.333008,4213.820313,4215.358887,4201.512695,4220.487305,4248.179199,4245.615234,4257.922852,4209.205078,4231.769043,4265.615234,358,2042,2045,0,0,0,1494,372,2,3,4,4,3,4,1,3,4,4,4,4,4,4,4,4
107,0,4285.512695,4360.384277,4280.897461,4280.384277,4275.256348,4277.307617,4263.461426,4284.487305,4308.589844,4304.487305,4313.717773,4265,4294.743652,4320.897461,596,2043,2044,0,0,0,1494,380,2,3,4,4,3,4,1,3,4,4,4,4,4,4,4,4
108,0,4219.512695,4315.922852,4215.922852,4211.820313,4213.358887,4209.256348,4201.05127,4222.07666,4251.307617,4247.717773,4255.410156,4210.281738,4233.358887,4261.05127,990,2043,2042,0,0,0,1494,388,2,3,4,4,3,4,1,3,4,4,4,4,4,4,4,4
109,0,4202.333008,4310.025391,4200.794922,4201.820313,4202.846191,4198.743652,4195.666504,4205.922852,4226.436035,4223.358887,4233.615234,4189,4213.615234,4239.256348,476,2044,2039,0,0,0,1494,396,2,3,4,4,3,4,1,3,4,4,4,4,4,4,4,4
110,0,4200.794922,4276.692383,4200.281738,4203.871582,4189.512695,4198.230469,4194.641113,4203.358887,4216.692383,4212.589844,4226.436035,4185.922852,4207.974121,4230.538574,358,2045,2038,0,0,0,1494,403,2,3,4,4,3,4,1,3,4,4,4,4,4,4,4,4
111,0,4110.205078,4173.794922,4111.230469,4112.769043,4095.846191,4108.666504,4099.94873,4116.871582,4131.743652,4127.641113,4135.333008,4100.461426,4123.025391,4142.512695,596,2044,2037,0,0,0,1494,410,2,3,4,4,3,4,1,3,4,4,4,4,4,4,4,4
112,0,4231.563965,4322.846191,4237.717773,4240.281738,4235.666504,4238.743652,4226.436035,4241.820313,4252.07666,4252.589844,4254.12793,4220.794922,4246.436035,4265.410156,990,2044,2037,0,0,0,1494,418,2,3,4,4,3,4,1,3,4,4,4,4,4,4,4,4
113,0,4088.666504,4195.846191,4094.307617,4098.922852,4095.333008,4093.794922,4085.589844,4097.897461,4114.307617,4112.769043,4122.512695,4083.538574,4103.025391,4125.07666,476,2045,2037,0,0,0,1494,426,2,3,4,4,3,4,1,3,4,4,4,4,4,4,4,4
114,0,4214.538574,4318.12793,4220.179199,4226.846191,4220.179199,4221.205078,4215.05127,4228.384277,4245.820313,4239.153809,4249.410156,4202.743652,4233.512695,4246.846191,358,2044,2038,0,0,0,1494,435,2,3,4,4,3,4,1,3,4,4,4,4,4,4,4,4
115,0,4218.538574,4309.820313,4223.666504,4229.820313,4227.256348,4225.205078,4217,4233.922852,4249.307617,4243.153809,4249.820313,4207.769043,4237,4248.794922,596,2044,2039,0,0,0,1494,442,2,3,4,4,3,4,1,3,4,4,4,4,4,4,4,4
116,0,4154.615234,4239.743652,4158.717773,4167.436035,4160.769043,4158.717773,4147.94873,4166.410156,4183.333008,4179.743652,4187.436035,4152.05127,4170,4184.871582,990,2044,2042,0,0,0,1494,451,2,3,4,4,3,4,1,3,4,4,4,4,4,4,4,4
117,0,4119.94873,4207.641113,4129.179199,4139.436035,4127.12793,4130.205078,4120.974121,4132.256348,4139.436035,4140.461426,4144.563965,4109.692383,4136.358887,4143.538574,476,2045,2042,0,0,0,1494,459,2,3,4,4,3,4,1,3,4,4,4,4,4,4,4,4
118,0,4193.922852,4265.717773,4205.717773,4210.333008,4204.179199,4202.12793,4197,4210.846191,4213.922852,4214.436035,4216.487305,4187.769043,4215.461426,4221.615234,358,2044,2042,0,0,0,1494,466,2,3,4,4,3,4,1,3,4,4,4,4,4,4,4,4
119,0,4183.820313,4247.410156,4196.641113,4203.820313,4197.666504,4194.07666,4187.410156,4203.820313,4203.820313,4199.717773,4203.307617,4177.153809,4204.846191,4211.512695,596,2046,2045,0,0,0,1494,474,2,3,4,4,3,4,1,3,4,4,4,4,4,4,4,4
120,0,4243.307617,4317.153809,4256.641113,4267.922852,4255.102539,4257.666504,4249.461426,4259.205078,4257.666504,4256.641113,4262.281738,4235.102539,4260.230469,4266.384277,990,2046,2046,0,0,0,1494,482,2,3,4,4,3,4,1,3,4,4,4,4,4,4,4,4
121,0,4156.410156,4231.281738,4166.666504,4174.871582,4165.641113,4168.717773,4160.512695,4170.256348,4172.820313,4176.922852,4177.94873,4147.179199,4171.794922,4178.461426,476,2046,2047,0,0,0,1494,489,2,3,4,4,3,4,1,3,4,4,4,4,4,4,4,4
122,0,4111.333008,4188.769043,4122.102539,4129.794922,4128.769043,4127.230469,4116.974121,4128.769043,4124.153809,4127.230469,4127.230469,4092.871582,4127.230469,4131.846191,358,2046,2047,0,0,0,1494,497,2,3,4,4,3,4,1,3,4,4,4,4,4,4,4,4
123,0,4175.384277,4260,4185.12793,4194.871582,4189.743652,4187.692383,4177.436035,4191.794922,4188.205078,4188.717773,4195.897461,4167.179199,4193.333008,4198.974121,596,2044,2045,0,0,0,1494,505,2,3,4,4,3,4,1,3,4,4,4,4,4,4,4,4
124,0,4202.794922,4289.974121,4213.563965,4223.307617,4216.12793,4213.05127,4206.384277,4219.205078,4219.205078,4220.743652,4223.820313,4197.666504,4222.281738,4222.281738,990,2044,2045,0,0,0,1494,513,2,3,4,4,3,4,1,3,4,4,4,4,4,4,4,4
125,0,4123.230469,4205.794922,4138.615234,4145.281738,4142.205078,4135.538574,4131.94873,4142.205078,4142.205078,4144.769043,4144.769043,4115.538574,4143.230469,4142.205078,476,2043,2045,0,0,0,1494,521,2,3,4,4,3,4,1,3,4,4,4,4,4,4,4,4
126,0,4231.256348,4317.922852,4248.692383,4253.307617,4244.589844,4249.205078,4241,4253.820313,4260.487305,4262.025391,4264.07666,4230.743652,4259.461426,4257.922852,358,2043,2046,0,0,0,1494,529,2,3,4,4,3,4,1,3,4,4,4,4,4,4,4,4
127,0,4096.05127,4189.384277,4115.538574,4127.333008,4107.333008,4121.692383,4112.461426,4119.641113,4120.666504,4121.692383,4122.205078,4089.897461,4125.794922,4117.07666,596,2043,2048,0,0,0,1494,537,2,3,4,4,3,4,1,3,4,4,4,4,4,4,4,4
128,0,4202.589844,4279,4219,4231.307617,4214.897461,4219,4213.358887,4219,4212.846191,4213.871582,4213.871582,4195.410156,4223.615234,4216.94873,990,2044,2048,0,0,0,1494,544,2,3,4,4,3,4,1,3,4,4,4,4,4,4,4,4
0,0,4076.666504,4147.94873,4091.025391,4099.743652,4094.615234,4090,4085.384277,4091.538574,4081.794922,4082.307617,4081.281738,4067.94873,4095.641113,4090.512695,259,2044,2048,0,0,0,1494,552,2,3,4,4,3,4,1,3,4,4,4,4,4,4,4,4
1,0,4204.230469,4286.281738,4220.641113,4228.846191,4222.179199,4222.692383,4215,4221.153809,4212.94873,4211.922852,4213.974121,4194.487305,4223.717773,4218.589844,314,2045,2049,0,0,0,1494,560,2,3,4,4,3,4,1,3,4,4,4,4,4,4,4,4
2,0,4174.743652,4258.846191,4189.615234,4200.897461,4192.692383,4194.743652,4183.461426,4192.692383,4191.153809,4190.12793,4194.743652,4168.07666,4196.281738,4192.692383,399,2044,2049,0,0,0,1494,568,2,3,4,4,3,4,1,3,4,4,4,4,4,4,4,4
3,0,4246.538574,4337.820313,4262.436035,4279.358887,4275.256348,4271.153809,4263.461426,4268.07666,4257.307617,4256.794922,4257.307617,4230.641113,4269.102539,4258.333008,457,2043,2048,0,0,0,1494,576,2,3,4,4,3,4,1,3,4,4,4,4,4,4,4,4
4,0,4096.615234,4195.07666,4115.589844,4129.94873,4122.769043,4120.205078,4112.512695,4116.615234,4105.846191,4106.871582,4108.410156,4087.897461,4120.717773,4105.333008,349,2043,2045,0,0,0,1494,584,2,3,4,4,3,4,1,3,4,4,4,4,4,4,4,4
5,0,4228.641113,4326.589844,4250.692383,4261.974121,4254.794922,4253.769043,4243,4251.205078,4250.692383,4250.179199,4253.256348,4225.05127,4257.358887,4243.512695,398,2044,2043,0,0,0,1494,591,2,3,4,4,3,4,1,3,4,4,4,4,4,4,4,4
6,0,4130.563965,4230.05127,4153.12793,4162.871582,4160.307617,4159.281738,4148,4157.743652,4157.743652,4153.641113,4157.230469,4121.333008,4160.307617,4151.589844,100,2044,2043,0,0,0,1494,599,2,3,4,4,3,4,1,3,4,4,4,4,4,4,4,4
7,0,4129.12793,4224,4147.589844,4158.358887,4147.07666,4153.743652,4142.974121,4153.743652,4153.743652,4148.615234,4154.769043,4126.05127,4157.333008,4149.641113,342,2044,2041,0,0,0,1494,607,2,3,4,4,3,4,1,3,4,4,4,4,4,4,4,4
8,0,4228.538574,4319.307617,4251.102539,4263.922852,4244.436035,4253.666504,4242.384277,4252.641113,4245.461426,4242.384277,4245.461426,4219.820313,4255.205078,4241.358887,921,2044,2039,0,0,0,1494,616,2,3,4,4,3,4,1,3,4,4,4,4,4,4,4,4
9,0,4218.641113,4314.538574,4241.205078,4250.436035,4241.205078,4244.794922,4226.846191,4239.153809,4228.897461,4229.922852,4233,4210.436035,4241.205078,4229.922852,883,2046,2041,0,0,0,1494,623,2,3,4,4,3,4,1,3,4,4,4,4,4,4,4,4
10,0,4205.666504,4297.974121,4225.153809,4230.794922,4233.358887,4234.897461,4216.94873,4222.589844,4216.436035,4217.974121,4220.025391,4201.05127,4226.692383,4216.436035,358,2045,2040,0,0,0,1494,632,2,3,4,4,3,4,1,3,4,4,4,4,4,4,4,4
11,0,4230.538574,4292.589844,4255.153809,4255.153809,4258.743652,4261.820313,4248.487305,4249,4242.846191,4242.333008,4240.794922,4221.820313,4251.563965,4240.794922,591,2045,2041,0,0,0,1494,640,2,3,4,4,3,4,1,3,4,4,4,4,4,4,4,4
12,0,4144.102539,4182.05127,4169.230469,4164.102539,4166.666504,4168.717773,4156.922852,4164.102539,4157.94873,4158.974121,4158.974121,4141.538574,4166.153809,4161.025391,987,2045,2041,0,0,0,1494,647,2,3,4,4,3,4,1,3,4,4,4,4,4,4,4,4
13,0,4237.563965,4275.512695,4261.666504,4256.025391,4263.717773,4262.692383,4253.461426,4255,4243.717773,4246.794922,4247.307617,4228.333008,4258.589844,4250.384277,476,2046,2040,0,0,0,1494,656,2,3,4,4,3,4,1,3,4,4,4,4,4,4,4,4
14,0,4174.641113,4198.743652,4196.179199,4192.07666,4195.666504,4199.256348,4189,4186.94873,4177.717773,4180.281738,4178.743652,4164.384277,4193.615234,4183.871582,358,2046,2040,0,0,0,1494,663,2,3,4,4,3,4,1,3,4,4,4,4,4,4,4,4
15,0,4088.666504,4127.12793,4108.153809,4109.179199,4099.436035,4114.307617,4102,4103.025391,4097.897461,4097.897461,4097.384277,4083.025391,4110.205078,4101.487305,591,2046,2040,0,0,0,1494,670,2,3,4,4,3,4,1,3,4,4,4,4,4,4,4,4
16,0,4197.615234,4262.743652,4216.589844,4219.666504,4210.94873,4224.794922,4215.05127,4210.436035,4203.256348,4200.692383,4205.307617,4183.256348,4219.153809,4208.384277,0,2045,2040,0,0,0,1494,678,2,3,4,4,3,4,1,3,4,4,4,4,4,4,4,4
17,0,4210.692383,4243,4227.102539,4224.538574,4229.153809,4229.153809,4222.487305,4223.512695,4218.897461,4217.871582,4220.94873,4201.974121,4232.743652,4223,0,2046,2042,0,0,0,1494,685,2,3,4,4,3,4,1,3,4,4,4,4,4,4,4,4
18,0,4107.538574,4121.897461,4127.538574,4122.410156,4132.153809,4129.07666,4121.897461,4131.12793,4115.230469,4118.820313,4115.230469,4099.333008,4130.615234,4118.307617,0,2045,2044,0,0,0,1494,694,2,3,4,4,3,4,1,3,4,4,4,4,4,4,4,4
19,0,4209.563965,4252.641113,4232.641113,4228.025391,4233.666504,4234.692383,4224.94873,4232.12793,4212.12793,4216.230469,4218.794922,4200.333008,4231.102539,4219.307617,0,2044,2044,0,0,0,1494,702,2,3,4,4,3,4,1,3,4,4,4,4,4,4,4,4
20,0,4243.256348,4296.07666,4263.256348,4258.12793,4263.256348,4262.230469,4252.487305,4257.615234,4254.538574,4252.487305,4258.12793,4236.07666,4265.820313,4255.05127,0,2044,2043,0,0,0,1494,710,2,3,4,4,3,4,1,3,4,4,4,4,4,4,4,4
21,0,4245.205078,4297.512695,4264.692383,4260.589844,4269.820313,4264.692383,4257.512695,4261.615234,4258.538574,4255.461426,4252.897461,4232.384277,4266.743652,4254.94873,0,2044,2044,0,0,0,1494,719,2,3,4,4,3,4,1,3,4,4,4,4,4,4,4,4
22,0,4089.12793,4157.333008,4113.743652,4109.641113,4116.307617,4113.743652,4105.538574,4113.230469,4101.94873,4101.436035,4101.436035,4085.538574,4111.179199,4105.025391,0,2043,2044,0,0,0,1494,726,2,3,4,4,3,4,1,3,4,4,4,4,4,4,4,4
23,0,4133.025391,4214.05127,4160.717773,4160.205078,4164.307617,4163.794922,4153.538574,4156.615234,4142.769043,4141.743652,4143.281738,4125.846191,4156.615234,4147.384277,0,2042,2047,0,0,0,1494,734,2,3,4,4,3,4,1,3,4,4,4,4,4,4,4,4
24,0,4085.641113,4175.384277,4108.717773,4109.230469,4114.871582,4111.281738,4101.025391,4101.538574,4093.846191,4091.794922,4091.794922,4073.333008,4107.692383,4092.307617,0,2041,2047,0,0,0,1494,741,2,3,4,4,3,4,1,3,4,4,4,4,4,4,4,4
25,0,4188.179199,4270.230469,4210.230469,4207.153809,4213.307617,4211.256348,4199.461426,4202.538574,4199.461426,4197.922852,4196.897461,4179.974121,4209.717773,4196.384277,0,2041,2047,0,0,0,1494,749,2,3,4,4,3,4,1,3,4,4,4,4,4,4,4,4
26,0,4120.974121,4167.641113,4148.666504,4140.974121,4154.307617,4151.230469,4140.974121,4136.358887,4119.94873,4123.025391,4117.384277,4104.563965,4142,4126.102539,0,2041,2047,0,0,0,1494,757,2,3,4,4,3,4,1,3,4,4,4,4,4,4,4,4
27,0,4090.666504,4105.025391,4113.743652,4100.410156,4116.307617,4112.205078,4104,4102.461426,4086.563965,4090.666504,4090.153809,4079.897461,4109.12793,4096.307617,0,2040,2049,0,0,0,1494,765,2,3,4,4,3,4,1,3,4,4,4,4,4,4,4,4
28,0,4094.205078,4089.589844,4112.153809,4101.384277,4113.692383,4108.563965,4102.922852,4109.589844,4098.820313,4099.333008,4101.897461,4085.487305,4114.205078,4101.384277,0,2040,2047,0,0,0,1494,773,2,3,4,4,3,4,1,3,4,4,4,4,4,4,4,4
29,0,4124.563965,4088.666504,4146.102539,4140.461426,4148.666504,4142.512695,4136.871582,4140.461426,4120.974121,4124.05127,4121.487305,4112.256348,4145.07666,4127.641113,0,2040,2049,0,0,0,1494,781,2,3,4,4,3,4,1,3,4,4,4,4,4,4,4,4
30,0,4123.692383,4087.281738,4144.717773,4138.05127,4147.281738,4142.153809,4134.461426,4134.461426,4116,4119.589844,4119.589844,4113.94873,4142.666504,4124.717773,0,2039,2047,0,0,0,1494,789,2,3,4,4,3,4,1,3,4,4,4,4,4,4,4,4
31,0,4145.230469,4164.717773,4166.256348,4164.205078,4169.333008,4167.281738,4158.05127,4157.538574,4146.256348,4142.153809,4146.256348,4131.384277,4163.179199,4147.794922,0,2041,2046,0,0,0,1494,797,2,3,4,4,3,4,1,3,4,4,4,4,4,4,4,4
32,0,4089.230469,4134.358887,4112.820313,4114.358887,4108.717773,4113.846191,4098.461426,4103.07666,4098.461426,4093.333008,4096.410156,4081.538574,4109.230469,4097.94873,0,2043,2046,0,0,0,1494,804,2,3,4,4,3,4,1,3,4,4,4,4,4,4,4,4
33,0,4167.692383,4216.922852,4189.743652,4190.769043,4187.179199,4194.871582,4181.538574,4181.025391,4173.846191,4171.794922,4171.794922,4157.94873,4189.743652,4171.794922,0,2044,2046,0,0,0,1494,812,2,3,4,4,3,4,1,3,4,4,4,4,4,4,4,4
34,0,4201.256348,4262.794922,4222.794922,4218.179199,4225.358887,4225.871582,4217.666504,4214.589844,4205.871582,4203.307617,4204.846191,4189.974121,4220.743652,4201.769043,0,2046,2043,0,0,0,1494,820,2,3,4,4,3,4,1,3,4,4,4,4,4,4,4,4
35,0,4112.820313,4155.897461,4134.358887,4127.179199,4133.846191,4130.769043,4121.025391,4125.12793,4122.563965,4120.512695,4121.538574,4108.717773,4130.769043,4118.461426,0,2047,2043,0,0,0,1494,828,2,3,4,4,3,4,1,3,4,4,4,4,4,4,4,4
36,0,4202.07666,4217.974121,4225.666504,4221.563965,4226.692383,4225.666504,4214.384277,4213.358887,4198.487305,4200.025391,4196.436035,4185.153809,4219,4202.07666,0,2046,2039,0,0,0,1494,836,2,3,4,4,3,4,1,3,4,4,4,4,4,4,4,4
37,0,4200.538574,4222.07666,4224.12793,4219.512695,4229.769043,4226.179199,4216.436035,4209.769043,4186.179199,4190.281738,4188.743652,4186.179199,4219.512695,4196.436035,0,2047,2039,0,0,0,1494,844,2,3,4,4,3,4,1,3,4,4,4,4,4,4,4,4
38,0,4245.563965,4284.538574,4268.641113,4265.05127,4276.846191,4271.205078,4266.07666,4259.410156,4239.410156,4241.974121,4239.410156,4236.333008,4268.641113,4244.025391,0,2047,2040,0,0,0,1494,852,2,3,4,4,3,4,1,3,4,4,4,4,4,4,4,4
39,0,4148.615234,4179.384277,4170.666504,4167.07666,4174.769043,4172.205078,4167.07666,4163.487305,4145.538574,4146.05127,4144.512695,4133.230469,4169.641113,4148.102539,0,2047,2041,0,0,0,1494,860,2,3,4,4,3,4,1,3,4,4,4,4,4,4,4,4
40,0,4105.230469,4129.846191,4123.179199,4118.05127,4127.794922,4122.666504,4118.05127,4119.589844,4107.281738,4110.358887,4111.384277,4097.025391,4126.769043,4111.384277,0,2046,2041,0,0,0,1494,868,2,3,4,4,3,4,1,3,4,4,4,4,4,4,4,4
41,0,4161.025391,4207.179199,4181.538574,4179.487305,4192.820313,4188.205078,4186.153809,4180,4164.102539,4167.692383,4167.692383,4152.307617,4183.589844,4166.666504,0,2044,2042,0,0,0,1494,875,2,3,4,4,3,4,1,3,4,4,4,4,4,4,4,4
42,0,4225.512695,4271.666504,4248.589844,4250.641113,4249.102539,4251.153809,4250.641113,4241.410156,4223.461426,4221.922852,4226.538574,4218.846191,4245.512695,4226.538574,0,2044,2043,0,0,0,1494,882,2,3,4,4,3,4,1,3,4,4,4,4,4,4,4,4
43,0,4250.538574,4266.94873,4272.07666,4275.666504,4262.333008,4269,4269,4265.410156,4243.358887,4242.333008,4244.384277,4243.358887,4272.07666,4248.487305,0,2045,2043,0,0,0,1494,890,2,3,4,4,3,4,1,3,4,4,4,4,4,4,4,4
44,0,4223.461426,4223.974121,4246.538574,4246.538574,4246.025391,4249.615234,4249.102539,4241.410156,4213.205078,4216.794922,4211.666504,4207.05127,4244.487305,4219.871582,0,2046,2043,0,0,0,1494,899,2,3,4,4,3,4,1,3,4,4,4,4,4,4,4,4
45,0,4229.205078,4231.256348,4248.179199,4242.538574,4255.871582,4253.307617,4246.641113,4241,4225.615234,4226.12793,4225.615234,4215.358887,4243.563965,4225.615234,0,2046,2043,0,0,0,1494,907,2,3,4,4,3,4,1,3,4,4,4,4,4,4,4,4
46,0,4081.743652,4097.641113,4098.666504,4097.12793,4104.820313,4102.256348,4089.436035,4090.461426,4079.179199,4076.102539,4076.615234,4062.769043,4094.563965,4073.538574,0,2045,2043,0,0,0,1494,915,2,3,4,4,3,4,1,3,4,4,4,4,4,4,4,4
47,0,4071.692383,4079.897461,4090.153809,4095.281738,4090.666504,4092.205078,4081.436035,4082.974121,4067.07666,4066.05127,4064,4053.230469,4087.589844,4067.589844,0,2043,2041,0,0,0,1494,924,2,3,4,4,3,4,1,3,4,4,4,4,4,4,4,4
48,0,4167.692383,4141.025391,4185.641113,4190.256348,4187.692383,4188.717773,4181.025391,4180,4164.102539,4163.07666,4162.05127,4152.307617,4185.12793,4169.230469,0,2042,2042,0,0,0,1494,931,2,3,4,4,3,4,1,3,4,4,4,4,4,4,4,4
49,0,4203.205078,4164.230469,4219.615234,4222.179199,4228.333008,4223.717773,4215,4213.461426,4195,4193.461426,4191.922852,4183.205078,4217.563965,4199.615234,0,2041,2043,0,0,0,1494,939,2,3,4,4,3,4,1,3,4,4,4,4,4,4,4,4
50,0,4191.717773,4172.230469,4207.102539,4207.102539,4214.794922,4212.743652,4201.974121,4202.487305,4184.538574,4186.07666,4185.563965,4180.436035,4208.12793,4189.153809,0,2040,2044,0,0,0,1494,947,2,3,4,4,3,4,1,3,4,4,4,4,4,4,4,4
51,0,4144.512695,4160.922852,4165.538574,4161.94873,4169.12793,4172.205078,4160.922852,4159.384277,4135.281738,4137.333008,4134.256348,4127.589844,4164,4139.384277,0,2042,2046,0,0,0,1494,954,2,3,4,4,3,4,1,3,4,4,4,4,4,4,4,4
52,0,4063.538574,4097.897461,4088.153809,4080.974121,4090.205078,4089.179199,4077.384277,4077.384277,4052.256348,4054.820313,4050.205078,4044.05127,4080.461426,4058.410156,0,2043,2048,0,0,0,1494,962,2,3,4,4,3,4,1,3,4,4,4,4,4,4,4,4
53,0,4265.717773,4310.333008,4284.692383,4281.615234,4289.820313,4286.230469,4276.487305,4275.974121,4263.153809,4264.179199,4260.07666,4250.846191,4281.102539,4265.205078,0,2044,2048,0,0,0,1494,970,2,3,4,4,3,4,1,3,4,4,4,4,4,4,4,4
54,0,4220.230469,4288.94873,4237.666504,4239.717773,4244.846191,4242.794922,4234.07666,4229.461426,4220.743652,4219.205078,4217.153809,4200.230469,4233.563965,4216.12793,0,2042,2046,0,0,0,1494,979,2,3,4,4,3,4,1,3,4,4,4,4,4,4,4,4
55,0,4122.820313,4197.692383,4141.281738,4139.230469,4144.871582,4144.871582,4132.05127,4133.589844,4130.512695,4130,4131.025391,4112.05127,4137.692383,4121.794922,0,2043,2046,0,0,0,1494,986,2,3,4,4,3,4,1,3,4,4,4,4,4,4,4,4
56,0,4099.179199,4152.512695,4120.717773,4119.179199,4125.846191,4126.358887,4115.589844,4113.025391,4108.922852,4110.974121,4107.897461,4085.846191,4118.153809,4099.692383,0,2044,2045,0,0,0,1494,994,2,3,4,4,3,4,1,3,4,4,4,4,4,4,4,4
57,0,4252.692383,4267.05127,4271.666504,4272.692383,4278.333008,4275.256348,4268.07666,4262.436035,4252.692383,4253.717773,4250.641113,4232.692383,4269.615234,4248.07666,0,2043,2044,0,0,0,1495,2,2,3,4,4,3,4,1,3,4,4,4,4,4,4,4,4
58,0,4235.769043,4249.615234,4249.615234,4251.153809,4255.769043,4253.205078,4242.94873,4246.025391,4236.794922,4234.743652,4233.717773,4221.410156,4252.692383,4232.179199,0,2043,2045,0,0,0,1495,10,2,3,4,4,3,4,1,3,4,4,4,4,4,4,4,4
59,0,4236.12793,4263.820313,4253.05127,4252.538574,4262.281738,4261.769043,4252.538574,4248.436035,4232.538574,4231.512695,4226.897461,4213.05127,4250.487305,4228.436035,0,2043,2044,0,0,0,1495,18,2,3,4,4,3,4,1,3,4,4,4,4,4,4,4,4
60,0,4145.743652,4140.102539,4161.641113,4160.615234,4168.307617,4164.205078,4159.589844,4153.436035,4134.461426,4138.563965,4133.94873,4124.205078,4157.538574,4134.461426,0,2042,2045,0,0,0,1495,25,2,3,4,4,3,4,1,3,4,4,4,4,4,4,4,4
61,0,4126.769043,4114.461426,4139.07666,4143.179199,4144.205078,4137.538574,4134.974121,4132.922852,4114.974121,4118.563965,4113.94873,4105.743652,4140.615234,4113.436035,0,2044,2046,0,0,0,1495,33,2,3,4,4,3,4,1,3,4,4,4,4,4,4,4,4
62,0,4140.205078,4175.07666,4153.025391,4157.12793,4163.281738,4157.641113,4151.487305,4146.358887,4134.05127,4133.025391,4130.461426,4117.641113,4152,4127.897461,0,2045,2042,0,0,0,1495,41,2,3,4,4,3,4,1,3,4,4,4,4,4,4,4,4
63,0,4249.256348,4293.358887,4260.025391,4263.102539,4268.743652,4267.205078,4259,4257.974121,4247.205078,4248.743652,4246.179199,4231.307617,4261.563965,4240.025391,0,2044,2040,0,0,0,1495,49,2,3,4,4,3,4,1,3,4,4,4,4,4,4,4,4
64,0,4230.743652,4260.487305,4241.512695,4252.281738,4239.974121,4248.179199,4239.461426,4236.897461,4219.461426,4223.05127,4216.897461,4203.563965,4243.563965,4214.333008,258,2044,2042,0,0,0,1495,57,2,3,4,4,3,4,1,3,4,4,4,4,4,4,4,4
65,0,4253.307617,4312.281738,4265.102539,4279.461426,4260.487305,4273.307617,4263.05127,4253.307617,4244.07666,4244.07666,4241,4230.743652,4264.589844,4237.410156,314,2044,2040,0,0,0,1495,64,2,3,4,4,3,4,1,3,4,4,4,4,4,4,4,4
66,0,4092.102539,4163.897461,4109.025391,4120.307617,4115.179199,4121.333008,4110.05127,4099.794922,4091.07666,4088.512695,4085.94873,4074.153809,4108,4081.333008,399,2045,2040,0,0,0,1495,72,2,3,4,4,3,4,1,3,4,4,4,4,4,4,4,4
67,0,4148,4180.307617,4166.461426,4179.281738,4176.717773,4177.230469,4167.487305,4161.333008,4134.666504,4136.717773,4130.05127,4120.820313,4164.410156,4134.153809,444,2047,2039,0,0,0,1495,81,2,3,4,4,3,4,1,3,4,4,4,4,4,4,4,4
68,0,4101.12793,4126.769043,4116,4131.384277,4121.641113,4125.230469,4113.94873,4107.281738,4080.615234,4083.179199,4078.05127,4074.461426,4116.512695,4084.205078,349,2046,2041,0,0,0,1495,88,2,3,4,4,3,4,1,3,4,4,4,4,4,4,4,4
69,0,4232.025391,4262.281738,4248.94873,4261.769043,4254.589844,4256.641113,4246.897461,4234.07666,4210.487305,4208.94873,4207.410156,4201.256348,4245.871582,4212.025391,398,2046,2039,0,0,0,1495,96,2,3,4,4,3,4,1,3,4,4,4,4,4,4,4,4
70,0,4190.538574,4162.333008,4207.461426,4213.615234,4209.512695,4208.487305,4203.358887,4192.07666,4164.384277,4165.922852,4165.410156,4163.871582,4202.333008,4173.102539,100,2046,2041,0,0,0,1495,104,2,3,4,4,3,4,1,3,4,4,4,4,4,4,4,4
71,0,4228.436035,4166.897217,4246.384277,4253.563965,4249.461426,4247.922852,4247.410156,4235.615234,4200.743652,4204.333008,4200.230469,4203.307617,4245.358887,4212.025391,342,2047,2042,0,0,0,1495,112,2,3,4,4,3,4,1,3,4,4,4,4,4,4,4,4
72,0,4213.358887,4183.615234,4232.846191,4241.563965,4241.05127,4240.025391,4238.487305,4222.589844,4186.692383,4186.179199,4181.05127,4184.12793,4229.256348,4193.871582,923,2049,2044,0,0,0,1495,120,2,3,4,4,3,4,1,3,4,4,4,4,4,4,4,4
73,0,4226.025391,4198.333008,4242.436035,4245,4245.512695,4248.07666,4240.897461,4230.641113,4205,4203.461426,4200.384277,4202.436035,4238.333008,4208.589844,883,2047,2045,0,0,0,1495,128,2,3,4,4,3,4,1,3,4,4,4,4,4,4,4,4
74,0,4068,4013.12793,4083.897461,4087.487305,4088,4088,4079.794922,4071.589844,4043.384277,4044.410156,4037.743652,4036.205078,4082.358887,4046.461426,356,2047,2044,0,0,0,1495,135,2,3,4,4,3,4,1,3,4,4,4,4,4,4,4,4
75,0,4220.538574,4153.358887,4238.487305,4241.05127,4239.512695,4236.94873,4232.333008,4223.615234,4191.307617,4193.358887,4187.717773,4190.794922,4235.410156,4200.538574,596,2045,2044,0,0,0,1495,143,2,3,4,4,3,4,1,3,4,4,4,4,4,4,4,4
76,0,4161.538574,4097.94873,4181.025391,4182.563965,4177.94873,4177.436035,4173.333008,4163.07666,4131.794922,4131.794922,4128.717773,4133.846191,4172.307617,4146.153809,995,2043,2044,0,0,0,1495,151,2,3,4,4,3,4,1,3,4,4,4,4,4,4,4,4
